outcome,representation,eeg_id,channel,band,n,r_pearson,p_raw_parametric,permutation_exceedances,p_permutation,p_maxT_block64,p_maxT_outcome192,p_maxT_global576,q_BH_raw_block64,q_BH_raw_outcome192,q_BH_raw_global576,q_BH_permutation_block64,q_BH_permutation_outcome192,q_BH_permutation_global576,q_BY_permutation_global576
BAI,OC,EEG1,Fp1,delta,25,-0.0619073737127522,0.7687795359906069,7744,0.7744225577442255,0.973002699730027,1.0,1.0,0.9992579305985924,0.9993931686551354,0.9993931686551354,0.9996000399960004,0.9997000299970004,0.9997000299970004,1.0
BAI,OC,EEG2,Fp1,theta,25,-0.0294962000920306,0.8886911382283886,8893,0.8893110688931107,0.9996000399960004,1.0,1.0,0.9992579305985924,0.9993931686551354,0.9993931686551354,0.9996000399960004,0.9997000299970004,0.9997000299970004,1.0
BAI,OC,EEG3,Fp1,alpha,25,-0.0044993612992611,0.9829703795575492,9837,0.9837016298370164,1.0,1.0,1.0,0.9992579305985924,0.9993931686551354,0.9993931686551354,0.9996000399960004,0.9997000299970004,0.9997000299970004,1.0
BAI,OC,EEG4,Fp1,beta,25,-0.0017641528869818,0.9933224621210606,9938,0.9938006199380062,1.0,1.0,1.0,0.9992579305985924,0.9993931686551354,0.9993931686551354,0.9996000399960004,0.9997000299970004,0.9997000299970004,1.0
BAI,OC,EEG5,Fp2,delta,25,-0.0741442800001827,0.724667863139442,7289,0.7289271072892711,0.9412058794120588,0.9995000499950004,1.0,0.9992579305985924,0.9993931686551354,0.9993931686551354,0.9996000399960004,0.9997000299970004,0.9997000299970004,1.0
BAI,OC,EEG6,Fp2,theta,25,-0.04401646856838,0.8345139604547851,8354,0.8354164583541646,0.9956004399560044,1.0,1.0,0.9992579305985924,0.9993931686551354,0.9993931686551354,0.9996000399960004,0.9997000299970004,0.9997000299970004,1.0
BAI,OC,EEG7,Fp2,alpha,25,-0.0651083199338163,0.7571669090406085,7660,0.766023397660234,0.9655034496550344,0.999900009999,1.0,0.9992579305985924,0.9993931686551354,0.9993931686551354,0.9996000399960004,0.9997000299970004,0.9997000299970004,1.0
BAI,OC,EEG8,Fp2,beta,25,-0.0287255741994537,0.8915822320531173,8948,0.8948105189481051,0.9997000299970004,1.0,1.0,0.9992579305985924,0.9993931686551354,0.9993931686551354,0.9996000399960004,0.9997000299970004,0.9997000299970004,1.0
BAI,OC,EEG9,F3,delta,25,-0.0628355486830314,0.7654071276228893,7697,0.7697230276972302,0.9706029397060294,1.0,1.0,0.9992579305985924,0.9993931686551354,0.9993931686551354,0.9996000399960004,0.9997000299970004,0.9997000299970004,1.0
BAI,OC,EEG10,F3,theta,25,-0.0347371948011936,0.8690673762689689,8692,0.8692130786921308,0.9988001199880012,1.0,1.0,0.9992579305985924,0.9993931686551354,0.9993931686551354,0.9996000399960004,0.9997000299970004,0.9997000299970004,1.0
BAI,OC,EEG11,F3,alpha,25,-0.0035580250183696,0.9865328832204696,9868,0.9868013198680132,1.0,1.0,1.0,0.9992579305985924,0.9993931686551354,0.9993931686551354,0.9996000399960004,0.9997000299970004,0.9997000299970004,1.0
BAI,OC,EEG12,F3,beta,25,-0.0002118618128267,0.9991980681046898,9993,0.9993000699930008,1.0,1.0,1.0,0.9992579305985924,0.9993931686551354,0.9993931686551354,0.9996000399960004,0.9997000299970004,0.9997000299970004,1.0
BAI,OC,EEG13,F4,delta,25,-0.0713652260405762,0.73461681575865,7396,0.7396260373962604,0.9495050494950504,0.9996000399960004,1.0,0.9992579305985924,0.9993931686551354,0.9993931686551354,0.9996000399960004,0.9997000299970004,0.9997000299970004,1.0
BAI,OC,EEG14,F4,theta,25,-0.041544679050555,0.843691804805188,8443,0.8443155684431557,0.9966003399660034,1.0,1.0,0.9992579305985924,0.9993931686551354,0.9993931686551354,0.9996000399960004,0.9997000299970004,0.9997000299970004,1.0
BAI,OC,EEG15,F4,alpha,25,-0.001846970265253,0.993008995371574,9941,0.994100589941006,1.0,1.0,1.0,0.9992579305985924,0.9993931686551354,0.9993931686551354,0.9996000399960004,0.9997000299970004,0.9997000299970004,1.0
BAI,OC,EEG16,F4,beta,25,-0.0027372057614566,0.9896394949142828,9909,0.9909009099090093,1.0,1.0,1.0,0.9992579305985924,0.9993931686551354,0.9993931686551354,0.9996000399960004,0.9997000299970004,0.9997000299970004,1.0
BAI,OC,EEG17,C3,delta,25,-0.0651535239530608,0.7570032738536987,7623,0.7623237676232377,0.9654034596540346,0.999900009999,1.0,0.9992579305985924,0.9993931686551354,0.9993931686551354,0.9996000399960004,0.9997000299970004,0.9997000299970004,1.0
BAI,OC,EEG18,C3,theta,25,-0.0388594746371289,0.8536845208992903,8513,0.8513148685131486,0.9977002299770024,1.0,1.0,0.9992579305985924,0.9993931686551354,0.9993931686551354,0.9996000399960004,0.9997000299970004,0.9997000299970004,1.0
BAI,OC,EEG19,C3,alpha,25,0.0135930353935882,0.9485813678789122,9484,0.9484051594840516,1.0,1.0,1.0,0.9992579305985924,0.9993931686551354,0.9993931686551354,0.9996000399960004,0.9997000299970004,0.9997000299970004,1.0
BAI,OC,EEG20,C3,beta,25,0.0042954205458612,0.9837421723085708,9834,0.9834016598340166,1.0,1.0,1.0,0.9992579305985924,0.9993931686551354,0.9993931686551354,0.9996000399960004,0.9997000299970004,0.9997000299970004,1.0
BAI,OC,EEG21,C4,delta,25,-0.08100175676265,0.7003060435711479,7019,0.7019298070192981,0.9223077692230776,0.9989001099890013,1.0,0.9992579305985924,0.9993931686551354,0.9993931686551354,0.9996000399960004,0.9997000299970004,0.9997000299970004,1.0
BAI,OC,EEG22,C4,theta,25,-0.045996078499129,0.8271786764806398,8280,0.828017198280172,0.9936006399360064,1.0,1.0,0.9992579305985924,0.9993931686551354,0.9993931686551354,0.9996000399960004,0.9997000299970004,0.9997000299970004,1.0
BAI,OC,EEG23,C4,alpha,25,-0.0020892606195255,0.9920919236321124,9923,0.9923007699230078,1.0,1.0,1.0,0.9992579305985924,0.9993931686551354,0.9993931686551354,0.9996000399960004,0.9997000299970004,0.9997000299970004,1.0
BAI,OC,EEG24,C4,beta,25,0.0018063121862178,0.9931628875371248,9933,0.9933006699330068,1.0,1.0,1.0,0.9992579305985924,0.9993931686551354,0.9993931686551354,0.9996000399960004,0.9997000299970004,0.9997000299970004,1.0
BAI,OC,EEG25,P3,delta,25,-0.0767154655147256,0.7155015109195733,7191,0.7191280871912809,0.9354064593540646,0.9993000699930008,1.0,0.9992579305985924,0.9993931686551354,0.9993931686551354,0.9996000399960004,0.9997000299970004,0.9997000299970004,1.0
BAI,OC,EEG26,P3,theta,25,-0.035796244221049,0.8651107450303053,8653,0.8653134686531346,0.9986001399860014,1.0,1.0,0.9992579305985924,0.9993931686551354,0.9993931686551354,0.9996000399960004,0.9997000299970004,0.9997000299970004,1.0
BAI,OC,EEG27,P3,alpha,25,0.0019012812287196,0.9928034269692302,9914,0.9914008599140086,1.0,1.0,1.0,0.9992579305985924,0.9993931686551354,0.9993931686551354,0.9996000399960004,0.9997000299970004,0.9997000299970004,1.0
BAI,OC,EEG28,P3,beta,25,0.0066648859807469,0.9747762253464864,9737,0.9737026297370264,1.0,1.0,1.0,0.9992579305985924,0.9993931686551354,0.9993931686551354,0.9996000399960004,0.9997000299970004,0.9997000299970004,1.0
BAI,OC,EEG29,P4,delta,25,-0.0791566566955445,0.7068338472006802,7099,0.7099290070992901,0.928107189281072,0.999000099990001,1.0,0.9992579305985924,0.9993931686551354,0.9993931686551354,0.9996000399960004,0.9997000299970004,0.9997000299970004,1.0
BAI,OC,EEG30,P4,theta,25,-0.0421044829021705,0.841611453383144,8418,0.8418158184181582,0.9965003499650036,1.0,1.0,0.9992579305985924,0.9993931686551354,0.9993931686551354,0.9996000399960004,0.9997000299970004,0.9997000299970004,1.0
BAI,OC,EEG31,P4,alpha,25,-0.0062613749851093,0.9763029112468083,9769,0.9769023097690231,1.0,1.0,1.0,0.9992579305985924,0.9993931686551354,0.9993931686551354,0.9996000399960004,0.9997000299970004,0.9997000299970004,1.0
BAI,OC,EEG32,P4,beta,25,-0.0032130510824819,0.9878385093775732,9863,0.9863013698630136,1.0,1.0,1.0,0.9992579305985924,0.9993931686551354,0.9993931686551354,0.9996000399960004,0.9997000299970004,0.9997000299970004,1.0
BAI,OC,EEG33,O1,delta,25,-0.0785673590574483,0.7089230023774293,7131,0.7131286871312869,0.9298070192980702,0.9992000799920008,1.0,0.9992579305985924,0.9993931686551354,0.9993931686551354,0.9996000399960004,0.9997000299970004,0.9997000299970004,1.0
BAI,OC,EEG34,O1,theta,25,-0.043775206700866,0.8354088686195031,8346,0.8346165383461653,0.9957004299570044,1.0,1.0,0.9992579305985924,0.9993931686551354,0.9993931686551354,0.9996000399960004,0.9997000299970004,0.9997000299970004,1.0
BAI,OC,EEG35,O1,alpha,25,0.0019659395230838,0.9925586942339464,9929,0.9929007099290073,1.0,1.0,1.0,0.9992579305985924,0.9993931686551354,0.9993931686551354,0.9996000399960004,0.9997000299970004,0.9997000299970004,1.0
BAI,OC,EEG36,O1,beta,25,0.0039072634670376,0.9852111514150586,9839,0.983901609839016,1.0,1.0,1.0,0.9992579305985924,0.9993931686551354,0.9993931686551354,0.9996000399960004,0.9997000299970004,0.9997000299970004,1.0
BAI,OC,EEG37,O2,delta,25,-0.0879974634772067,0.6757463129772793,6755,0.6755324467553244,0.8988101189881011,0.9971002899710028,1.0,0.9992579305985924,0.9993931686551354,0.9993931686551354,0.9996000399960004,0.9997000299970004,0.9997000299970004,1.0
BAI,OC,EEG38,O2,theta,25,-0.0428379955716614,0.8388871257015676,8375,0.8375162483751625,0.996000399960004,1.0,1.0,0.9992579305985924,0.9993931686551354,0.9993931686551354,0.9996000399960004,0.9997000299970004,0.9997000299970004,1.0
BAI,OC,EEG39,O2,alpha,25,-0.0055406365333977,0.979030027004009,9793,0.9793020697930208,1.0,1.0,1.0,0.9992579305985924,0.9993931686551354,0.9993931686551354,0.9996000399960004,0.9997000299970004,0.9997000299970004,1.0
BAI,OC,EEG40,O2,beta,25,-0.0001960467790284,0.9992579305985924,9992,0.9992000799920008,1.0,1.0,1.0,0.9992579305985924,0.9993931686551354,0.9993931686551354,0.9996000399960004,0.9997000299970004,0.9997000299970004,1.0
BAI,OC,EEG41,F7,delta,25,-0.0804361421070517,0.7023049694924149,7039,0.7039296070392961,0.9245075492450756,0.9989001099890013,1.0,0.9992579305985924,0.9993931686551354,0.9993931686551354,0.9996000399960004,0.9997000299970004,0.9997000299970004,1.0
BAI,OC,EEG42,F7,theta,25,-0.0442045827290202,0.8338163307610154,8337,0.8337166283371663,0.9956004399560044,1.0,1.0,0.9992579305985924,0.9993931686551354,0.9993931686551354,0.9996000399960004,0.9997000299970004,0.9997000299970004,1.0
BAI,OC,EEG43,F7,alpha,25,0.0018095056998955,0.9931507999742276,9923,0.9923007699230078,1.0,1.0,1.0,0.9992579305985924,0.9993931686551354,0.9993931686551354,0.9996000399960004,0.9997000299970004,0.9997000299970004,1.0
BAI,OC,EEG44,F7,beta,25,0.0034969469931872,0.9867640434484936,9861,0.986101389861014,1.0,1.0,1.0,0.9992579305985924,0.9993931686551354,0.9993931686551354,0.9996000399960004,0.9997000299970004,0.9997000299970004,1.0
BAI,OC,EEG45,F8,delta,25,-0.0749620243966176,0.7217485159923376,7243,0.7243275672432756,0.93990600939906,0.9995000499950004,1.0,0.9992579305985924,0.9993931686551354,0.9993931686551354,0.9996000399960004,0.9997000299970004,0.9997000299970004,1.0
BAI,OC,EEG46,F8,theta,25,-0.0435183197588603,0.8363619531776797,8357,0.8357164283571643,0.9958004199580042,1.0,1.0,0.9992579305985924,0.9993931686551354,0.9993931686551354,0.9996000399960004,0.9997000299970004,0.9997000299970004,1.0
BAI,OC,EEG47,F8,alpha,25,-0.0069191053368482,0.9738144290649966,9739,0.973902609739026,1.0,1.0,1.0,0.9992579305985924,0.9993931686551354,0.9993931686551354,0.9996000399960004,0.9997000299970004,0.9997000299970004,1.0
BAI,OC,EEG48,F8,beta,25,0.0013449437471711,0.9949091975804673,9946,0.9946005399460054,1.0,1.0,1.0,0.9992579305985924,0.9993931686551354,0.9993931686551354,0.9996000399960004,0.9997000299970004,0.9997000299970004,1.0
BAI,OC,EEG49,T7,delta,25,-0.0767650278553075,0.7153251904997803,7191,0.7191280871912809,0.9354064593540646,0.9993000699930008,1.0,0.9992579305985924,0.9993931686551354,0.9993931686551354,0.9996000399960004,0.9997000299970004,0.9997000299970004,1.0
BAI,OC,EEG50,T7,theta,25,-0.045434910897957,0.8292566365940527,8292,0.8292170782921707,0.994100589941006,1.0,1.0,0.9992579305985924,0.9993931686551354,0.9993931686551354,0.9996000399960004,0.9997000299970004,0.9997000299970004,1.0
BAI,OC,EEG51,T7,alpha,25,0.0042380607650944,0.9839592470713748,9818,0.9818018198180182,1.0,1.0,1.0,0.9992579305985924,0.9993931686551354,0.9993931686551354,0.9996000399960004,0.9997000299970004,0.9997000299970004,1.0
BAI,OC,EEG52,T7,beta,25,0.0002614508259925,0.9990103655944532,9996,0.9996000399960004,1.0,1.0,1.0,0.9992579305985924,0.9993931686551354,0.9993931686551354,0.9996000399960004,0.9997000299970004,0.9997000299970004,1.0
BAI,OC,EEG53,T8,delta,25,-0.074176820104929,0.7245516232838896,7282,0.7282271772822718,0.9411058894110588,0.9995000499950004,1.0,0.9992579305985924,0.9993931686551354,0.9993931686551354,0.9996000399960004,0.9997000299970004,0.9997000299970004,1.0
BAI,OC,EEG54,T8,theta,25,-0.0365360888295569,0.8623485348910008,8623,0.8623137686231377,0.9985001499850016,1.0,1.0,0.9992579305985924,0.9993931686551354,0.9993931686551354,0.9996000399960004,0.9997000299970004,0.9997000299970004,1.0
BAI,OC,EEG55,T8,alpha,25,-0.0104124459973315,0.960602120039934,9634,0.9634036596340366,1.0,1.0,1.0,0.9992579305985924,0.9993931686551354,0.9993931686551354,0.9996000399960004,0.9997000299970004,0.9997000299970004,1.0
BAI,OC,EEG56,T8,beta,25,0.001914509441607,0.9927533579081148,9922,0.9922007799220078,1.0,1.0,1.0,0.9992579305985924,0.9993931686551354,0.9993931686551354,0.9996000399960004,0.9997000299970004,0.9997000299970004,1.0
BAI,OC,EEG57,P7,delta,25,-0.0721997621910397,0.7316247431164344,7370,0.7370262973702629,0.9471052894710528,0.9995000499950004,1.0,0.9992579305985924,0.9993931686551354,0.9993931686551354,0.9996000399960004,0.9997000299970004,0.9997000299970004,1.0
BAI,OC,EEG58,P7,theta,25,-0.0395004036438213,0.8512973186310221,8507,0.8507149285071492,0.9977002299770024,1.0,1.0,0.9992579305985924,0.9993931686551354,0.9993931686551354,0.9996000399960004,0.9997000299970004,0.9997000299970004,1.0
BAI,OC,EEG59,P7,alpha,25,0.0056552974672111,0.9785961591859752,9803,0.9803019698030196,1.0,1.0,1.0,0.9992579305985924,0.9993931686551354,0.9993931686551354,0.9996000399960004,0.9997000299970004,0.9997000299970004,1.0
BAI,OC,EEG60,P7,beta,25,0.0093726436458869,0.9645338978990344,9633,0.9633036696330368,1.0,1.0,1.0,0.9992579305985924,0.9993931686551354,0.9993931686551354,0.9996000399960004,0.9997000299970004,0.9997000299970004,1.0
BAI,OC,EEG61,P8,delta,25,-0.0671606231074308,0.7497480625680472,7516,0.7516248375162484,0.960903909609039,0.999900009999,1.0,0.9992579305985924,0.9993931686551354,0.9993931686551354,0.9996000399960004,0.9997000299970004,0.9997000299970004,1.0
BAI,OC,EEG62,P8,theta,25,-0.038378669049092,0.8554761501532665,8551,0.8551144885511449,0.997900209979002,1.0,1.0,0.9992579305985924,0.9993931686551354,0.9993931686551354,0.9996000399960004,0.9997000299970004,0.9997000299970004,1.0
BAI,OC,EEG63,P8,alpha,25,0.0052897464669726,0.9799793950068648,9815,0.9815018498150184,1.0,1.0,1.0,0.9992579305985924,0.9993931686551354,0.9993931686551354,0.9996000399960004,0.9997000299970004,0.9997000299970004,1.0
BAI,OC,EEG64,P8,beta,25,0.0061764729886344,0.9766241488717124,9775,0.9775022497750224,1.0,1.0,1.0,0.9992579305985924,0.9993931686551354,0.9993931686551354,0.9996000399960004,0.9997000299970004,0.9997000299970004,1.0
MSPSS,OC,EEG1,Fp1,delta,25,0.1095245928782223,0.6022559886979149,6001,0.6001399860013998,0.8182181781821818,0.9753024697530248,1.0,0.7881924419155985,0.992516486086388,0.9993931686551354,0.7937238022229522,0.9818925084235762,0.9997000299970004,1.0
MSPSS,OC,EEG2,Fp1,theta,25,0.0700494769085257,0.7393418163723968,7428,0.7428257174282572,0.9537046295370464,0.9991000899910008,1.0,0.7881924419155985,0.992516486086388,0.9993931686551354,0.7937238022229522,0.9818925084235762,0.9997000299970004,1.0
MSPSS,OC,EEG3,Fp1,alpha,25,0.1727987362890076,0.4088035355042777,4056,0.4056594340565943,0.5882411758824118,0.8540145985401459,0.9875012498750124,0.7881924419155985,0.992516486086388,0.9993931686551354,0.7937238022229522,0.9818925084235762,0.9997000299970004,1.0
MSPSS,OC,EEG4,Fp1,beta,25,0.0958660619426582,0.6485030449124936,6502,0.6502349765023497,0.8689131086891311,0.9885011498850116,1.0,0.7881924419155985,0.992516486086388,0.9993931686551354,0.7937238022229522,0.9818925084235762,0.9997000299970004,1.0
MSPSS,OC,EEG5,Fp2,delta,25,0.1056168904677997,0.6153456127921944,6147,0.6147385261473852,0.832016798320168,0.9793020697930208,1.0,0.7881924419155985,0.992516486086388,0.9993931686551354,0.7937238022229522,0.9818925084235762,0.9997000299970004,1.0
MSPSS,OC,EEG6,Fp2,theta,25,0.0601492533896399,0.7751786051760913,7813,0.7813218678132187,0.9738026197380262,0.999900009999,1.0,0.7881924419155985,0.992516486086388,0.9993931686551354,0.7937238022229522,0.9818925084235762,0.9997000299970004,1.0
MSPSS,OC,EEG7,Fp2,alpha,25,0.1736208148405883,0.4065436124968938,4044,0.4044595540445955,0.5856414358564144,0.8525147485251475,0.9872012798720128,0.7881924419155985,0.992516486086388,0.9993931686551354,0.7937238022229522,0.9818925084235762,0.9997000299970004,1.0
MSPSS,OC,EEG8,Fp2,beta,25,0.0909631411902691,0.6654294510573274,6646,0.6646335366463354,0.8867113288671132,0.9924007599240076,1.0,0.7881924419155985,0.992516486086388,0.9993931686551354,0.7937238022229522,0.9818925084235762,0.9997000299970004,1.0
MSPSS,OC,EEG9,F3,delta,25,0.1026674092553339,0.6253019783350655,6237,0.6237376262373763,0.8423157684231577,0.982101789821018,1.0,0.7881924419155985,0.992516486086388,0.9993931686551354,0.7937238022229522,0.9818925084235762,0.9997000299970004,1.0
MSPSS,OC,EEG10,F3,theta,25,0.0613590615185956,0.770773684395605,7727,0.7727227277272273,0.9711028897110288,0.9998000199980002,1.0,0.7881924419155985,0.992516486086388,0.9993931686551354,0.7937238022229522,0.9818925084235762,0.9997000299970004,1.0
MSPSS,OC,EEG11,F3,alpha,25,0.1671142830779029,0.4246199855177784,4258,0.4258574142585741,0.6060393960603939,0.8695130486951305,0.9893010698930108,0.7881924419155985,0.992516486086388,0.9993931686551354,0.7937238022229522,0.9818925084235762,0.9997000299970004,1.0
MSPSS,OC,EEG12,F3,beta,25,0.0891990352558764,0.6715593630603592,6717,0.6717328267173283,0.8936106389361064,0.9933006699330068,1.0,0.7881924419155985,0.992516486086388,0.9993931686551354,0.7937238022229522,0.9818925084235762,0.9997000299970004,1.0
MSPSS,OC,EEG13,F4,delta,25,0.0971066372488771,0.6442465122547095,6433,0.6433356664333567,0.8643135686431357,0.9872012798720128,1.0,0.7881924419155985,0.992516486086388,0.9993931686551354,0.7937238022229522,0.9818925084235762,0.9997000299970004,1.0
MSPSS,OC,EEG14,F4,theta,25,0.0678550656630351,0.747242577711488,7504,0.7504249575042495,0.9582041795820418,0.9994000599940006,1.0,0.7881924419155985,0.992516486086388,0.9993931686551354,0.7937238022229522,0.9818925084235762,0.9997000299970004,1.0
MSPSS,OC,EEG15,F4,alpha,25,0.1556282212580045,0.4575740720068442,4557,0.4557544245575442,0.6484351564843516,0.8962103789621038,0.9928007199280072,0.7881924419155985,0.992516486086388,0.9993931686551354,0.7937238022229522,0.9818925084235762,0.9997000299970004,1.0
MSPSS,OC,EEG16,F4,beta,25,0.0848778708178498,0.6866602403445901,6865,0.6865313468653135,0.9081091890810918,0.9952004799520048,1.0,0.7881924419155985,0.992516486086388,0.9993931686551354,0.7937238022229522,0.9818925084235762,0.9997000299970004,1.0
MSPSS,OC,EEG17,C3,delta,25,0.106540554295095,0.6122410937166476,6111,0.6111388861113889,0.8291170882911709,0.9788021197880212,1.0,0.7881924419155985,0.992516486086388,0.9993931686551354,0.7937238022229522,0.9818925084235762,0.9997000299970004,1.0
MSPSS,OC,EEG18,C3,theta,25,0.0629311892397375,0.7650598641035017,7669,0.7669233076692331,0.9684031596840316,0.9998000199980002,1.0,0.7881924419155985,0.992516486086388,0.9993931686551354,0.7937238022229522,0.9818925084235762,0.9997000299970004,1.0
MSPSS,OC,EEG19,C3,alpha,25,0.1501365047736463,0.4737898627693225,4709,0.470952904709529,0.6667333266673333,0.9074092590740926,0.9942005799420058,0.7881924419155985,0.992516486086388,0.9993931686551354,0.7937238022229522,0.9818925084235762,0.9997000299970004,1.0
MSPSS,OC,EEG20,C3,beta,25,0.0831186693327716,0.6928419798614678,6919,0.6919308069193081,0.9143085691430856,0.9954004599540046,1.0,0.7881924419155985,0.992516486086388,0.9993931686551354,0.7937238022229522,0.9818925084235762,0.9997000299970004,1.0
MSPSS,OC,EEG21,C4,delta,25,0.1099525096540224,0.6008297387000072,5991,0.5991400859914009,0.8168183181681832,0.9753024697530248,1.0,0.7881924419155985,0.992516486086388,0.9993931686551354,0.7937238022229522,0.9818925084235762,0.9997000299970004,1.0
MSPSS,OC,EEG22,C4,theta,25,0.070122172277546,0.7390805177350239,7419,0.7419258074192581,0.9535046495350464,0.9991000899910008,1.0,0.7881924419155985,0.992516486086388,0.9993931686551354,0.7937238022229522,0.9818925084235762,0.9997000299970004,1.0
MSPSS,OC,EEG23,C4,alpha,25,0.1732515519595358,0.4075578673431017,4057,0.4057594240575942,0.5866413358664133,0.853014698530147,0.9873012698730128,0.7881924419155985,0.992516486086388,0.9993931686551354,0.7937238022229522,0.9818925084235762,0.9997000299970004,1.0
MSPSS,OC,EEG24,C4,beta,25,0.0837845911824794,0.6904996955258371,6902,0.6902309769023097,0.9126087391260874,0.9953004699530048,1.0,0.7881924419155985,0.992516486086388,0.9993931686551354,0.7937238022229522,0.9818925084235762,0.9997000299970004,1.0
MSPSS,OC,EEG25,P3,delta,25,0.1059354152143334,0.6142742922693054,6151,0.6151384861513849,0.831016898310169,0.979002099790021,1.0,0.7881924419155985,0.992516486086388,0.9993931686551354,0.7937238022229522,0.9818925084235762,0.9997000299970004,1.0
MSPSS,OC,EEG26,P3,theta,25,0.0666678505752416,0.7515274378343942,7555,0.7555244475552445,0.961003899610039,0.9996000399960004,1.0,0.7881924419155985,0.992516486086388,0.9993931686551354,0.7937238022229522,0.9818925084235762,0.9997000299970004,1.0
MSPSS,OC,EEG27,P3,alpha,25,0.1644502517964377,0.4321455652367886,4290,0.4290570942905709,0.6156384361563844,0.8763123687631237,0.9902009799020098,0.7881924419155985,0.992516486086388,0.9993931686551354,0.7937238022229522,0.9818925084235762,0.9997000299970004,1.0
MSPSS,OC,EEG28,P3,beta,25,0.0856535857207334,0.6839405921934173,6838,0.6838316168383162,0.9055094490550945,0.9946005399460054,1.0,0.7881924419155985,0.992516486086388,0.9993931686551354,0.7937238022229522,0.9818925084235762,0.9997000299970004,1.0
MSPSS,OC,EEG29,P4,delta,25,0.1044149464685254,0.6193950907782122,6197,0.6197380261973803,0.837016298370163,0.9802019798020198,1.0,0.7881924419155985,0.992516486086388,0.9993931686551354,0.7937238022229522,0.9818925084235762,0.9997000299970004,1.0
MSPSS,OC,EEG30,P4,theta,25,0.0649570453021824,0.7577145857863582,7616,0.7616238376162384,0.9645035496450356,0.9997000299970004,1.0,0.7881924419155985,0.992516486086388,0.9993931686551354,0.7937238022229522,0.9818925084235762,0.9997000299970004,1.0
MSPSS,OC,EEG31,P4,alpha,25,0.1623237827368652,0.4382039329313738,4362,0.4362563743625637,0.6233376662333766,0.8812118788121188,0.9907009299070092,0.7881924419155985,0.992516486086388,0.9993931686551354,0.7937238022229522,0.9818925084235762,0.9997000299970004,1.0
MSPSS,OC,EEG32,P4,beta,25,0.0915168781113162,0.6635095989112323,6625,0.6625337466253375,0.8851114888511149,0.9923007699230078,1.0,0.7881924419155985,0.992516486086388,0.9993931686551354,0.7937238022229522,0.9818925084235762,0.9997000299970004,1.0
MSPSS,OC,EEG33,O1,delta,25,0.1039007999403508,0.6211306105795344,6203,0.6203379662033797,0.839016098390161,0.981001899810019,1.0,0.7881924419155985,0.992516486086388,0.9993931686551354,0.7937238022229522,0.9818925084235762,0.9997000299970004,1.0
MSPSS,OC,EEG34,O1,theta,25,0.0747813093350404,0.7223933448728365,7235,0.7235276472352765,0.9406059394060594,0.997900209979002,1.0,0.7881924419155985,0.992516486086388,0.9993931686551354,0.7937238022229522,0.9818925084235762,0.9997000299970004,1.0
MSPSS,OC,EEG35,O1,alpha,25,0.1487049075728577,0.4780649048956272,4743,0.4743525647435256,0.672032796720328,0.9104089591040896,0.9944005599440056,0.7881924419155985,0.992516486086388,0.9993931686551354,0.7937238022229522,0.9818925084235762,0.9997000299970004,1.0
MSPSS,OC,EEG36,O1,beta,25,0.0857803750734942,0.683496432510796,6823,0.6823317668233176,0.905009499050095,0.9946005399460054,1.0,0.7881924419155985,0.992516486086388,0.9993931686551354,0.7937238022229522,0.9818925084235762,0.9997000299970004,1.0
MSPSS,OC,EEG37,O2,delta,25,0.1048975740422884,0.6177677631203455,6181,0.6181381861813818,0.8349165083491651,0.9798020197980202,1.0,0.7881924419155985,0.992516486086388,0.9993931686551354,0.7937238022229522,0.9818925084235762,0.9997000299970004,1.0
MSPSS,OC,EEG38,O2,theta,25,0.0648809317602756,0.757990191232396,7611,0.7611238876112388,0.9647035296470352,0.9997000299970004,1.0,0.7881924419155985,0.992516486086388,0.9993931686551354,0.7937238022229522,0.9818925084235762,0.9997000299970004,1.0
MSPSS,OC,EEG39,O2,alpha,25,0.1595717957385969,0.4461115817431675,4438,0.4438556144385561,0.6335366463353664,0.8873112688731127,0.9913008699130088,0.7881924419155985,0.992516486086388,0.9993931686551354,0.7937238022229522,0.9818925084235762,0.9997000299970004,1.0
MSPSS,OC,EEG40,O2,beta,25,0.0888465978288111,0.6727864741421795,6713,0.6713328667133287,0.8949105089491051,0.9934006599340066,1.0,0.7881924419155985,0.992516486086388,0.9993931686551354,0.7937238022229522,0.9818925084235762,0.9997000299970004,1.0
MSPSS,OC,EEG41,F7,delta,25,0.1119450628263588,0.594207387417469,5930,0.593040695930407,0.8092190780921907,0.9725027497250276,1.0,0.7881924419155985,0.992516486086388,0.9993931686551354,0.7937238022229522,0.9818925084235762,0.9997000299970004,1.0
MSPSS,OC,EEG42,F7,theta,25,0.0709961714770961,0.7359411941689152,7382,0.7382261773822618,0.950904909509049,0.999000099990001,1.0,0.7881924419155985,0.992516486086388,0.9993931686551354,0.7937238022229522,0.9818925084235762,0.9997000299970004,1.0
MSPSS,OC,EEG43,F7,alpha,25,0.164040266377693,0.4333100885426595,4324,0.4324567543245675,0.6172382761723828,0.8769123087691231,0.9903009699030098,0.7881924419155985,0.992516486086388,0.9993931686551354,0.7937238022229522,0.9818925084235762,0.9997000299970004,1.0
MSPSS,OC,EEG44,F7,beta,25,0.0842108306810576,0.6890019080111871,6880,0.688031196880312,0.9105089491050896,0.9953004699530048,1.0,0.7881924419155985,0.992516486086388,0.9993931686551354,0.7937238022229522,0.9818925084235762,0.9997000299970004,1.0
MSPSS,OC,EEG45,F8,delta,25,0.1034814027804944,0.6225477592675565,6216,0.6216378362163784,0.8398160183981602,0.9812018798120188,1.0,0.7881924419155985,0.992516486086388,0.9993931686551354,0.7937238022229522,0.9818925084235762,0.9997000299970004,1.0
MSPSS,OC,EEG46,F8,theta,25,0.0684765178195784,0.745002545595211,7472,0.7472252774722528,0.957004299570043,0.9992000799920008,1.0,0.7881924419155985,0.992516486086388,0.9993931686551354,0.7937238022229522,0.9818925084235762,0.9997000299970004,1.0
MSPSS,OC,EEG47,F8,alpha,25,0.1628380003148188,0.4367347521672996,4367,0.4367563243675632,0.6223377662233777,0.8795120487951205,0.9906009399060094,0.7881924419155985,0.992516486086388,0.9993931686551354,0.7937238022229522,0.9818925084235762,0.9997000299970004,1.0
MSPSS,OC,EEG48,F8,beta,25,0.0862536752602387,0.6818393038088544,6819,0.6819318068193181,0.903009699030097,0.9945005499450056,1.0,0.7881924419155985,0.992516486086388,0.9993931686551354,0.7937238022229522,0.9818925084235762,0.9997000299970004,1.0
MSPSS,OC,EEG49,T7,delta,25,0.1060023132918814,0.6140493859150735,6130,0.613038696130387,0.8308169183081692,0.979002099790021,1.0,0.7881924419155985,0.992516486086388,0.9993931686551354,0.7937238022229522,0.9818925084235762,0.9997000299970004,1.0
MSPSS,OC,EEG50,T7,theta,25,0.0714973193465457,0.734142968277771,7356,0.7356264373562644,0.9495050494950504,0.9989001099890013,1.0,0.7881924419155985,0.992516486086388,0.9993931686551354,0.7937238022229522,0.9818925084235762,0.9997000299970004,1.0
MSPSS,OC,EEG51,T7,alpha,25,0.1654444967518443,0.4293285467910998,4282,0.4282571742825717,0.6119388061193881,0.8736126387361264,0.99000099990001,0.7881924419155985,0.992516486086388,0.9993931686551354,0.7937238022229522,0.9818925084235762,0.9997000299970004,1.0
MSPSS,OC,EEG52,T7,beta,25,0.0869193906216293,0.6795109099032085,6792,0.6792320767923208,0.9009099090090992,0.9942005799420058,1.0,0.7881924419155985,0.992516486086388,0.9993931686551354,0.7937238022229522,0.9818925084235762,0.9997000299970004,1.0
MSPSS,OC,EEG53,T8,delta,25,0.0984338857977926,0.6397046195285268,6377,0.6377362263773623,0.8591140885911409,0.9857014298570144,1.0,0.7881924419155985,0.992516486086388,0.9993931686551354,0.7937238022229522,0.9818925084235762,0.9997000299970004,1.0
MSPSS,OC,EEG54,T8,theta,25,0.0599576288816204,0.7758769350106672,7780,0.778022197780222,0.973902609739026,0.999900009999,1.0,0.7881924419155985,0.992516486086388,0.9993931686551354,0.7937238022229522,0.9818925084235762,0.9997000299970004,1.0
MSPSS,OC,EEG55,T8,alpha,25,0.1572464366207731,0.452851974646557,4536,0.4536546345365463,0.6423357664233577,0.8928107189281071,0.9917008299170084,0.7881924419155985,0.992516486086388,0.9993931686551354,0.7937238022229522,0.9818925084235762,0.9997000299970004,1.0
MSPSS,OC,EEG56,T8,beta,25,0.082893779880384,0.693633616736388,6945,0.6945305469453055,0.9149085091490852,0.9956004399560044,1.0,0.7881924419155985,0.992516486086388,0.9993931686551354,0.7937238022229522,0.9818925084235762,0.9997000299970004,1.0
MSPSS,OC,EEG57,P7,delta,25,0.1044015904139814,0.6194401496346529,6180,0.6180381961803819,0.837016298370163,0.9802019798020198,1.0,0.7881924419155985,0.992516486086388,0.9993931686551354,0.7937238022229522,0.9818925084235762,0.9997000299970004,1.0
MSPSS,OC,EEG58,P7,theta,25,0.0621322543439778,0.7679620828158108,7705,0.7705229477052294,0.9697030296970304,0.9998000199980002,1.0,0.7881924419155985,0.992516486086388,0.9993931686551354,0.7937238022229522,0.9818925084235762,0.9997000299970004,1.0
MSPSS,OC,EEG59,P7,alpha,25,0.1501227051959612,0.4738309772912057,4710,0.4710528947105289,0.6668333166683331,0.9074092590740926,0.9942005799420058,0.7881924419155985,0.992516486086388,0.9993931686551354,0.7937238022229522,0.9818925084235762,0.9997000299970004,1.0
MSPSS,OC,EEG60,P7,beta,25,0.0812186885145708,0.6995399027275441,7001,0.7001299870012999,0.9213078692130788,0.996000399960004,1.0,0.7881924419155985,0.992516486086388,0.9993931686551354,0.7937238022229522,0.9818925084235762,0.9997000299970004,1.0
MSPSS,OC,EEG61,P8,delta,25,0.0948615937188783,0.6519573474317122,6514,0.6514348565143485,0.8723127687231277,0.9896010398960104,1.0,0.7881924419155985,0.992516486086388,0.9993931686551354,0.7937238022229522,0.9818925084235762,0.9997000299970004,1.0
MSPSS,OC,EEG62,P8,theta,25,0.0548271711451652,0.794634927491322,7964,0.7964203579642036,0.9835016498350164,1.0,1.0,0.794634927491322,0.992516486086388,0.9993931686551354,0.7964203579642036,0.9818925084235762,0.9997000299970004,1.0
MSPSS,OC,EEG63,P8,alpha,25,0.1509378494731672,0.4714054746612344,4710,0.4710528947105289,0.6632336766323368,0.9061093890610938,0.9942005799420058,0.7881924419155985,0.992516486086388,0.9993931686551354,0.7937238022229522,0.9818925084235762,0.9997000299970004,1.0
MSPSS,OC,EEG64,P8,beta,25,0.077924931432248,0.7112028412015,7135,0.7135286471352865,0.9297070292970704,0.9969003099690033,1.0,0.7881924419155985,0.992516486086388,0.9993931686551354,0.7937238022229522,0.9818925084235762,0.9997000299970004,1.0
DISCREPANCY_Z_BAI_MINUS_MSPSS,OC,EEG1,Fp1,delta,25,-0.1081316729317946,0.6069084240512983,6005,0.6005399460053995,0.8205179482051795,0.9847015298470152,1.0,0.8299203208238445,0.9993242920620106,0.9993931686551354,0.8286171382861713,0.9993000699930008,0.9997000299970004,1.0
DISCREPANCY_Z_BAI_MINUS_MSPSS,OC,EEG2,Fp1,theta,25,-0.0627889932154866,0.7655761828781252,7618,0.7618238176182381,0.9687031296870312,0.9998000199980002,1.0,0.8299203208238445,0.9993242920620106,0.9993931686551354,0.8286171382861713,0.9993000699930008,0.9997000299970004,1.0
DISCREPANCY_Z_BAI_MINUS_MSPSS,OC,EEG3,Fp1,alpha,25,-0.1118317679081761,0.594583092502061,5871,0.5871412858714129,0.8061193880611939,0.982001799820018,1.0,0.8299203208238445,0.9993242920620106,0.9993931686551354,0.8286171382861713,0.9993000699930008,0.9997000299970004,1.0
DISCREPANCY_Z_BAI_MINUS_MSPSS,OC,EEG4,Fp1,beta,25,-0.0615808047247547,0.7699670588109615,7706,0.7706229377062294,0.9714028597140286,0.999900009999,1.0,0.8299203208238445,0.9993242920620106,0.9993931686551354,0.8286171382861713,0.9993000699930008,0.9997000299970004,1.0
DISCREPANCY_Z_BAI_MINUS_MSPSS,OC,EEG5,Fp2,delta,25,-0.1133853649200557,0.5894399604449512,5844,0.5844415558444156,0.8024197580241976,0.981001899810019,0.999900009999,0.8299203208238445,0.9993242920620106,0.9993931686551354,0.8286171382861713,0.9993000699930008,0.9997000299970004,1.0
DISCREPANCY_Z_BAI_MINUS_MSPSS,OC,EEG6,Fp2,theta,25,-0.0657031124442684,0.7550146192768797,7529,0.7529247075292471,0.9617038296170384,0.9998000199980002,1.0,0.8299203208238445,0.9993242920620106,0.9993931686551354,0.8286171382861713,0.9993000699930008,0.9997000299970004,1.0
DISCREPANCY_Z_BAI_MINUS_MSPSS,OC,EEG7,Fp2,alpha,25,-0.1505797386219525,0.4724702638004633,4641,0.4641535846415358,0.6615338466153384,0.9363063693630636,0.9942005799420058,0.8299203208238445,0.9993242920620106,0.9993931686551354,0.8286171382861713,0.9993000699930008,0.9997000299970004,1.0
DISCREPANCY_Z_BAI_MINUS_MSPSS,OC,EEG8,Fp2,beta,25,-0.0754943274787675,0.7198502213411786,7168,0.7168283171682832,0.9368063193680632,0.9992000799920008,1.0,0.8299203208238445,0.9993242920620106,0.9993931686551354,0.8286171382861713,0.9993000699930008,0.9997000299970004,1.0
DISCREPANCY_Z_BAI_MINUS_MSPSS,OC,EEG9,F3,delta,25,-0.1043919175222135,0.6194727835659168,6135,0.6135386461353864,0.8343165683431657,0.9875012498750124,1.0,0.8299203208238445,0.9993242920620106,0.9993931686551354,0.8286171382861713,0.9993000699930008,0.9997000299970004,1.0
DISCREPANCY_Z_BAI_MINUS_MSPSS,OC,EEG10,F3,theta,25,-0.0606132518046282,0.773488377181642,7729,0.7729227077292271,0.9735026497350264,0.999900009999,1.0,0.8299203208238445,0.9993242920620106,0.9993931686551354,0.8286171382861713,0.9993000699930008,0.9997000299970004,1.0
DISCREPANCY_Z_BAI_MINUS_MSPSS,OC,EEG11,F3,alpha,25,-0.1076525140822379,0.6085122980851126,6040,0.6040395960403959,0.8221177882211779,0.985001499850015,1.0,0.8299203208238445,0.9993242920620106,0.9993931686551354,0.8286171382861713,0.9993000699930008,0.9997000299970004,1.0
DISCREPANCY_Z_BAI_MINUS_MSPSS,OC,EEG12,F3,beta,25,-0.0563964240195583,0.7888851346389264,7863,0.7863213678632137,0.9795020497950204,1.0,1.0,0.8299203208238445,0.9993242920620106,0.9993931686551354,0.8286171382861713,0.9993000699930008,0.9997000299970004,1.0
DISCREPANCY_Z_BAI_MINUS_MSPSS,OC,EEG13,F4,delta,25,-0.1062645711980315,0.6131680211859944,6082,0.6082391760823918,0.827017298270173,0.9858014198580142,1.0,0.8299203208238445,0.9993242920620106,0.9993931686551354,0.8286171382861713,0.9993000699930008,0.9997000299970004,1.0
DISCREPANCY_Z_BAI_MINUS_MSPSS,OC,EEG14,F4,theta,25,-0.0690045016074298,0.7431010002695358,7400,0.74002599740026,0.9532046795320468,0.9997000299970004,1.0,0.8299203208238445,0.9993242920620106,0.9993931686551354,0.8286171382861713,0.9993000699930008,0.9997000299970004,1.0
DISCREPANCY_Z_BAI_MINUS_MSPSS,OC,EEG15,F4,alpha,25,-0.0993283589010702,0.6366507792855383,6323,0.6323367663233677,0.8523147685231477,0.9908009199080092,1.0,0.8299203208238445,0.9993242920620106,0.9993931686551354,0.8286171382861713,0.9993000699930008,0.9997000299970004,1.0
DISCREPANCY_Z_BAI_MINUS_MSPSS,OC,EEG16,F4,beta,25,-0.0552637001894283,0.7930344119587054,7928,0.7928207179282072,0.9807019298070192,1.0,1.0,0.8299203208238445,0.9993242920620106,0.9993931686551354,0.8286171382861713,0.9993000699930008,0.9997000299970004,1.0
DISCREPANCY_Z_BAI_MINUS_MSPSS,OC,EEG17,C3,delta,25,-0.1082970013273649,0.6063554344775911,6010,0.601039896010399,0.81991800819918,0.9846015398460154,1.0,0.8299203208238445,0.9993242920620106,0.9993931686551354,0.8286171382861713,0.9993000699930008,0.9997000299970004,1.0
DISCREPANCY_Z_BAI_MINUS_MSPSS,OC,EEG18,C3,theta,25,-0.0642050312594561,0.7604388675771012,7590,0.7590240975902409,0.9653034696530348,0.9998000199980002,1.0,0.8299203208238445,0.9993242920620106,0.9993931686551354,0.8286171382861713,0.9993000699930008,0.9997000299970004,1.0
DISCREPANCY_Z_BAI_MINUS_MSPSS,OC,EEG19,C3,alpha,25,-0.0861255579433706,0.682287729950052,6776,0.6776322367763223,0.9024097590240976,0.9967003299670032,1.0,0.8299203208238445,0.9993242920620106,0.9993931686551354,0.8286171382861713,0.9993000699930008,0.9997000299970004,1.0
DISCREPANCY_Z_BAI_MINUS_MSPSS,OC,EEG20,C3,beta,25,-0.0497182055758811,0.8134251193387887,8126,0.8126187381261873,0.9876012398760124,1.0,1.0,0.8299203208238445,0.9993242920620106,0.9993931686551354,0.8286171382861713,0.9993000699930008,0.9997000299970004,1.0
DISCREPANCY_Z_BAI_MINUS_MSPSS,OC,EEG21,C4,delta,25,-0.1204454728700841,0.5663129635168943,5634,0.5634436556344365,0.7752224777522247,0.9751024897510248,0.9995000499950004,0.8299203208238445,0.9993242920620106,0.9993931686551354,0.8286171382861713,0.9993000699930008,0.9997000299970004,1.0
DISCREPANCY_Z_BAI_MINUS_MSPSS,OC,EEG22,C4,theta,25,-0.0732422369297872,0.7278924932371144,7248,0.7248275172482752,0.9424057594240576,0.9993000699930008,1.0,0.8299203208238445,0.9993242920620106,0.9993931686551354,0.8286171382861713,0.9993000699930008,0.9997000299970004,1.0
DISCREPANCY_Z_BAI_MINUS_MSPSS,OC,EEG23,C4,alpha,25,-0.1105971994279878,0.5986836760161033,5975,0.5975402459754025,0.8106189381061893,0.9827017298270172,1.0,0.8299203208238445,0.9993242920620106,0.9993931686551354,0.8286171382861713,0.9993000699930008,0.9997000299970004,1.0
DISCREPANCY_Z_BAI_MINUS_MSPSS,OC,EEG24,C4,beta,25,-0.0517082585483322,0.8060934110672194,8057,0.8057194280571943,0.9851014898510148,1.0,1.0,0.8299203208238445,0.9993242920620106,0.9993931686551354,0.8286171382861713,0.9993000699930008,0.9997000299970004,1.0
DISCREPANCY_Z_BAI_MINUS_MSPSS,OC,EEG25,P3,delta,25,-0.1152080658493633,0.5834305075185781,5781,0.5781421857814218,0.7951204879512048,0.9798020197980202,0.999900009999,0.8299203208238445,0.9993242920620106,0.9993931686551354,0.8286171382861713,0.9993000699930008,0.9997000299970004,1.0
DISCREPANCY_Z_BAI_MINUS_MSPSS,OC,EEG26,P3,theta,25,-0.0646298015830392,0.7588997314526874,7571,0.7571242875712428,0.9647035296470352,0.9998000199980002,1.0,0.8299203208238445,0.9993242920620106,0.9993931686551354,0.8286171382861713,0.9993000699930008,0.9997000299970004,1.0
DISCREPANCY_Z_BAI_MINUS_MSPSS,OC,EEG27,P3,alpha,25,-0.1025286734460979,0.6257718917565559,6241,0.6241375862413758,0.842015798420158,0.9893010698930108,1.0,0.8299203208238445,0.9993242920620106,0.9993931686551354,0.8286171382861713,0.9993000699930008,0.9997000299970004,1.0
DISCREPANCY_Z_BAI_MINUS_MSPSS,OC,EEG28,P3,beta,25,-0.0498225646910453,0.813040256944023,8123,0.8123187681231877,0.9874012598740126,1.0,1.0,0.8299203208238445,0.9993242920620106,0.9993931686551354,0.8286171382861713,0.9993000699930008,0.9997000299970004,1.0
DISCREPANCY_Z_BAI_MINUS_MSPSS,OC,EEG29,P4,delta,25,-0.1157888166812143,0.5815213836651136,5783,0.5783421657834217,0.7933206679332067,0.9791020897910208,0.9996000399960004,0.8299203208238445,0.9993242920620106,0.9993931686551354,0.8286171382861713,0.9993000699930008,0.9997000299970004,1.0
DISCREPANCY_Z_BAI_MINUS_MSPSS,OC,EEG30,P4,theta,25,-0.0675296584504134,0.7484163084529325,7447,0.7447255274472553,0.957904209579042,0.9998000199980002,1.0,0.8299203208238445,0.9993242920620106,0.9993931686551354,0.8286171382861713,0.9993000699930008,0.9997000299970004,1.0
DISCREPANCY_Z_BAI_MINUS_MSPSS,OC,EEG31,P4,alpha,25,-0.1063360322957835,0.6129279537270613,6112,0.6112388761123888,0.8268173182681732,0.9858014198580142,1.0,0.8299203208238445,0.9993242920620106,0.9993931686551354,0.8286171382861713,0.9993000699930008,0.9997000299970004,1.0
DISCREPANCY_Z_BAI_MINUS_MSPSS,OC,EEG32,P4,beta,25,-0.0597514333185927,0.7766285544644788,7755,0.7755224477552245,0.9744025597440256,0.999900009999,1.0,0.8299203208238445,0.9993242920620106,0.9993931686551354,0.8286171382861713,0.9993000699930008,0.9997000299970004,1.0
DISCREPANCY_Z_BAI_MINUS_MSPSS,OC,EEG33,O1,delta,25,-0.1150928130941448,0.5838097060332105,5797,0.5797420257974203,0.7955204479552045,0.97990200979902,0.999900009999,0.8299203208238445,0.9993242920620106,0.9993931686551354,0.8286171382861713,0.9993000699930008,0.9997000299970004,1.0
DISCREPANCY_Z_BAI_MINUS_MSPSS,OC,EEG34,O1,theta,25,-0.074780186396127,0.7223973523279652,7178,0.7178282171782822,0.9391060893910608,0.9992000799920008,1.0,0.8299203208238445,0.9993242920620106,0.9993931686551354,0.8286171382861713,0.9993000699930008,0.9997000299970004,1.0
DISCREPANCY_Z_BAI_MINUS_MSPSS,OC,EEG35,O1,alpha,25,-0.0925564258232255,0.6599109701918899,6561,0.6561343865613438,0.8792120787921208,0.9949005099490053,1.0,0.8299203208238445,0.9993242920620106,0.9993931686551354,0.8286171382861713,0.9993000699930008,0.9997000299970004,1.0
DISCREPANCY_Z_BAI_MINUS_MSPSS,OC,EEG36,O1,beta,25,-0.0516419236282842,0.8063375482395779,8051,0.8051194880511949,0.9853014698530148,1.0,1.0,0.8299203208238445,0.9993242920620106,0.9993931686551354,0.8286171382861713,0.9993000699930008,0.9997000299970004,1.0
DISCREPANCY_Z_BAI_MINUS_MSPSS,OC,EEG37,O2,delta,25,-0.1216696251113439,0.5623447270666149,5596,0.5596440355964404,0.7711228877112288,0.973902609739026,0.9994000599940006,0.8299203208238445,0.9993242920620106,0.9993931686551354,0.8286171382861713,0.9993000699930008,0.9997000299970004,1.0
DISCREPANCY_Z_BAI_MINUS_MSPSS,OC,EEG38,O2,theta,25,-0.0679443166315167,0.7469207484785537,7432,0.7432256774322568,0.9568043195680432,0.9997000299970004,1.0,0.8299203208238445,0.9993242920620106,0.9993931686551354,0.8286171382861713,0.9993000699930008,0.9997000299970004,1.0
DISCREPANCY_Z_BAI_MINUS_MSPSS,OC,EEG39,O2,alpha,25,-0.1041455912712395,0.6203040627030469,6168,0.6168383161683831,0.8354164583541646,0.9875012498750124,1.0,0.8299203208238445,0.9993242920620106,0.9993931686551354,0.8286171382861713,0.9993000699930008,0.9997000299970004,1.0
DISCREPANCY_Z_BAI_MINUS_MSPSS,OC,EEG40,O2,beta,25,-0.0561641467176859,0.7897355375604652,7901,0.7901209879012099,0.97990200979902,1.0,1.0,0.8299203208238445,0.9993242920620106,0.9993931686551354,0.8286171382861713,0.9993000699930008,0.9997000299970004,1.0
DISCREPANCY_Z_BAI_MINUS_MSPSS,OC,EEG41,F7,delta,25,-0.1213455223302519,0.5633941246042639,5607,0.5607439256074392,0.7727227277272273,0.974002599740026,0.9994000599940006,0.8299203208238445,0.9993242920620106,0.9993931686551354,0.8286171382861713,0.9993000699930008,0.9997000299970004,1.0
DISCREPANCY_Z_BAI_MINUS_MSPSS,OC,EEG42,F7,theta,25,-0.072663520830004,0.729963665110561,7258,0.7258274172582742,0.9442055794420556,0.9994000599940006,1.0,0.8299203208238445,0.9993242920620106,0.9993931686551354,0.8286171382861713,0.9993000699930008,0.9997000299970004,1.0
DISCREPANCY_Z_BAI_MINUS_MSPSS,OC,EEG43,F7,alpha,25,-0.1023279607760819,0.626451978683348,6229,0.622937706229377,0.8425157484251575,0.9893010698930108,1.0,0.8299203208238445,0.9993242920620106,0.9993931686551354,0.8286171382861713,0.9993000699930008,0.9997000299970004,1.0
DISCREPANCY_Z_BAI_MINUS_MSPSS,OC,EEG44,F7,beta,25,-0.0509107341270575,0.8090297596380299,8090,0.809019098090191,0.986001399860014,1.0,1.0,0.8299203208238445,0.9993242920620106,0.9993931686551354,0.8286171382861713,0.9993000699930008,0.9997000299970004,1.0
DISCREPANCY_Z_BAI_MINUS_MSPSS,OC,EEG45,F8,delta,25,-0.1125541909600881,0.592189154384164,5891,0.5891410858914109,0.8038196180381961,0.9814018598140186,0.999900009999,0.8299203208238445,0.9993242920620106,0.9993931686551354,0.8286171382861713,0.9993000699930008,0.9997000299970004,1.0
DISCREPANCY_Z_BAI_MINUS_MSPSS,OC,EEG46,F8,theta,25,-0.0706413709642339,0.7372151116626344,7335,0.7335266473352665,0.9494050594940506,0.9994000599940006,1.0,0.8299203208238445,0.9993242920620106,0.9993931686551354,0.8286171382861713,0.9993000699930008,0.9997000299970004,1.0
DISCREPANCY_Z_BAI_MINUS_MSPSS,OC,EEG47,F8,alpha,25,-0.1070752450152466,0.6104469086829553,6065,0.6065393460653935,0.8237176282371763,0.9854014598540146,1.0,0.8299203208238445,0.9993242920620106,0.9993931686551354,0.8286171382861713,0.9993000699930008,0.9997000299970004,1.0
DISCREPANCY_Z_BAI_MINUS_MSPSS,OC,EEG48,F8,beta,25,-0.0535566578835942,0.7992977821381834,7987,0.7987201279872013,0.983001699830017,1.0,1.0,0.8299203208238445,0.9993242920620106,0.9993931686551354,0.8286171382861713,0.9993000699930008,0.9997000299970004,1.0
DISCREPANCY_Z_BAI_MINUS_MSPSS,OC,EEG49,T7,delta,25,-0.1152815239102672,0.5831888755967494,5792,0.5792420757924207,0.7949205079492051,0.9798020197980202,0.999900009999,0.8299203208238445,0.9993242920620106,0.9993931686551354,0.8286171382861713,0.9993000699930008,0.9997000299970004,1.0
DISCREPANCY_Z_BAI_MINUS_MSPSS,OC,EEG50,T7,theta,25,-0.0737556590373359,0.7260565531038854,7205,0.7205279472052795,0.9413058694130588,0.9993000699930008,1.0,0.8299203208238445,0.9993242920620106,0.9993931686551354,0.8286171382861713,0.9993000699930008,0.9997000299970004,1.0
DISCREPANCY_Z_BAI_MINUS_MSPSS,OC,EEG51,T7,alpha,25,-0.1016818622410719,0.6286432046184748,6263,0.6263373662633737,0.8443155684431557,0.9896010398960104,1.0,0.8299203208238445,0.9993242920620106,0.9993931686551354,0.8286171382861713,0.9993000699930008,0.9997000299970004,1.0
DISCREPANCY_Z_BAI_MINUS_MSPSS,OC,EEG52,T7,beta,25,-0.0546599808032434,0.7952481379807989,7951,0.7951204879512048,0.9815018498150184,1.0,1.0,0.8299203208238445,0.9993242920620106,0.9993931686551354,0.8286171382861713,0.9993000699930008,0.9997000299970004,1.0
DISCREPANCY_Z_BAI_MINUS_MSPSS,OC,EEG53,T8,delta,25,-0.1088751693535197,0.6044232366926698,5997,0.5997400259974003,0.818018198180182,0.9844015598440156,1.0,0.8299203208238445,0.9993242920620106,0.9993931686551354,0.8286171382861713,0.9993000699930008,0.9997000299970004,1.0
DISCREPANCY_Z_BAI_MINUS_MSPSS,OC,EEG54,T8,theta,25,-0.0608639528029965,0.7725755536779624,7696,0.7696230376962304,0.9727027297270272,0.999900009999,1.0,0.8299203208238445,0.9993242920620106,0.9993931686551354,0.8286171382861713,0.9993000699930008,0.9997000299970004,1.0
DISCREPANCY_Z_BAI_MINUS_MSPSS,OC,EEG55,T8,alpha,25,-0.1057517790869552,0.614891837213827,6089,0.6089391060893911,0.8286171382861713,0.986001399860014,1.0,0.8299203208238445,0.9993242920620106,0.9993931686551354,0.8286171382861713,0.9993000699930008,0.9997000299970004,1.0
DISCREPANCY_Z_BAI_MINUS_MSPSS,OC,EEG56,T8,beta,25,-0.0510781283063352,0.8084132334069609,8088,0.8088191180881912,0.9857014298570144,1.0,1.0,0.8299203208238445,0.9993242920620106,0.9993931686551354,0.8286171382861713,0.9993000699930008,0.9997000299970004,1.0
DISCREPANCY_Z_BAI_MINUS_MSPSS,OC,EEG57,P7,delta,25,-0.1113922921082796,0.5960414258412886,5908,0.5908409159084091,0.8072192780721927,0.9823017698230176,1.0,0.8299203208238445,0.9993242920620106,0.9993931686551354,0.8286171382861713,0.9993000699930008,0.9997000299970004,1.0
DISCREPANCY_Z_BAI_MINUS_MSPSS,OC,EEG58,P7,theta,25,-0.0641053681601073,0.7608001207658965,7580,0.758024197580242,0.9655034496550344,0.9998000199980002,1.0,0.8299203208238445,0.9993242920620106,0.9993931686551354,0.8286171382861713,0.9993000699930008,0.9997000299970004,1.0
DISCREPANCY_Z_BAI_MINUS_MSPSS,OC,EEG59,P7,alpha,25,-0.0911236264301937,0.6648728240190065,6626,0.6626337366263374,0.884011598840116,0.9953004699530048,1.0,0.8299203208238445,0.9993242920620106,0.9993931686551354,0.8286171382861713,0.9993000699930008,0.9997000299970004,1.0
DISCREPANCY_Z_BAI_MINUS_MSPSS,OC,EEG60,P7,beta,25,-0.045317295132707,0.8296923004571156,8279,0.827917208279172,0.9922007799220078,1.0,1.0,0.8299203208238445,0.9993242920620106,0.9993931686551354,0.8286171382861713,0.9993000699930008,0.9997000299970004,1.0
DISCREPANCY_Z_BAI_MINUS_MSPSS,OC,EEG61,P8,delta,25,-0.1021964205739277,0.6268978451960281,6220,0.6220377962203779,0.8429157084291571,0.9893010698930108,1.0,0.8299203208238445,0.9993242920620106,0.9993931686551354,0.8286171382861713,0.9993000699930008,0.9997000299970004,1.0
DISCREPANCY_Z_BAI_MINUS_MSPSS,OC,EEG62,P8,theta,25,-0.0587901056473626,0.7801353308027607,7787,0.7787221277872213,0.975002499750025,0.999900009999,1.0,0.8299203208238445,0.9993242920620106,0.9993931686551354,0.8286171382861713,0.9993000699930008,0.9997000299970004,1.0
DISCREPANCY_Z_BAI_MINUS_MSPSS,OC,EEG63,P8,alpha,25,-0.0918683565882357,0.6622920613985314,6594,0.6594340565943405,0.8814118588141185,0.995000499950005,1.0,0.8299203208238445,0.9993242920620106,0.9993931686551354,0.8286171382861713,0.9993000699930008,0.9997000299970004,1.0
DISCREPANCY_Z_BAI_MINUS_MSPSS,OC,EEG64,P8,beta,25,-0.0452557419486182,0.8299203208238445,8286,0.8286171382861713,0.9923007699230078,1.0,1.0,0.8299203208238445,0.9993242920620106,0.9993931686551354,0.8286171382861713,0.9993000699930008,0.9997000299970004,1.0
BAI,OA,EEG1,Fp1,delta,25,0.046724382149621,0.8244835090901802,8273,0.8273172682731726,0.992000799920008,1.0,1.0,0.9731780760200968,0.9993931686551354,0.9993931686551354,0.9738200783096294,0.9997000299970004,0.9997000299970004,1.0
BAI,OA,EEG2,Fp1,theta,25,0.0769881906278982,0.7145314538275841,7126,0.7126287371262874,0.93010698930107,0.9993000699930008,1.0,0.9731780760200968,0.9993931686551354,0.9993931686551354,0.9738200783096294,0.9997000299970004,0.9997000299970004,1.0
BAI,OA,EEG3,Fp1,alpha,25,0.1459668219797718,0.4862958583394712,4848,0.4848515148485151,0.6807319268073193,0.9495050494950504,0.9952004799520048,0.9731780760200968,0.9993931686551354,0.9993931686551354,0.9738200783096294,0.9997000299970004,0.9997000299970004,1.0
BAI,OA,EEG4,Fp1,beta,25,0.1247560907067093,0.5523956173818052,5534,0.5534446555344466,0.7574242575742426,0.9751024897510248,0.9994000599940006,0.9731780760200968,0.9993931686551354,0.9993931686551354,0.9738200783096294,0.9997000299970004,0.9997000299970004,1.0
BAI,OA,EEG5,Fp2,delta,25,0.0335962589786281,0.8733333600567741,8787,0.8787121287871212,0.9991000899910008,1.0,1.0,0.9731780760200968,0.9993931686551354,0.9993931686551354,0.9738200783096294,0.9997000299970004,0.9997000299970004,1.0
BAI,OA,EEG6,Fp2,theta,25,0.0593748340640432,0.7780018289997088,7783,0.7783221677832217,0.9717028297170284,1.0,1.0,0.9731780760200968,0.9993931686551354,0.9993931686551354,0.9738200783096294,0.9997000299970004,0.9997000299970004,1.0
BAI,OA,EEG7,Fp2,alpha,25,0.0896485832510809,0.6699953190240333,6694,0.6694330566943306,0.8882111788821118,0.9963003699630038,1.0,0.9731780760200968,0.9993931686551354,0.9993931686551354,0.9738200783096294,0.9997000299970004,0.9997000299970004,1.0
BAI,OA,EEG8,Fp2,beta,25,0.1041111220831543,0.6204204222821712,6178,0.6178382161783822,0.8344165583441656,0.9903009699030098,1.0,0.9731780760200968,0.9993931686551354,0.9993931686551354,0.9738200783096294,0.9997000299970004,0.9997000299970004,1.0
BAI,OA,EEG9,F3,delta,25,0.0292672050391622,0.8895500975457085,8943,0.8943105689431057,0.9996000399960004,1.0,1.0,0.9731780760200968,0.9993931686551354,0.9993931686551354,0.9738200783096294,0.9997000299970004,0.9997000299970004,1.0
BAI,OA,EEG10,F3,theta,25,0.061997552553697,0.7684517021969693,7681,0.7681231876812319,0.965903409659034,1.0,1.0,0.9731780760200968,0.9993931686551354,0.9993931686551354,0.9738200783096294,0.9997000299970004,0.9997000299970004,1.0
BAI,OA,EEG11,F3,alpha,25,0.1064339515829378,0.6125990651600854,6135,0.6135386461353864,0.8256174382561744,0.9882011798820118,1.0,0.9731780760200968,0.9993931686551354,0.9993931686551354,0.9738200783096294,0.9997000299970004,0.9997000299970004,1.0
BAI,OA,EEG12,F3,beta,25,0.1065788466170593,0.6121125293418793,6118,0.6118388161183882,0.8253174682531746,0.987901209879012,1.0,0.9731780760200968,0.9993931686551354,0.9993931686551354,0.9738200783096294,0.9997000299970004,0.9997000299970004,1.0
BAI,OA,EEG13,F4,delta,25,0.0198327917870908,0.9250328338826944,9275,0.9275072492750724,1.0,1.0,1.0,0.9731780760200968,0.9993931686551354,0.9993931686551354,0.9738200783096294,0.9997000299970004,0.9997000299970004,1.0
BAI,OA,EEG14,F4,theta,25,0.0554717253397809,0.7922719821186396,7909,0.7909209079092091,0.98010198980102,1.0,1.0,0.9731780760200968,0.9993931686551354,0.9993931686551354,0.9738200783096294,0.9997000299970004,0.9997000299970004,1.0
BAI,OA,EEG15,F4,alpha,25,0.084052415747929,0.6895584389140487,6883,0.6883311668833116,0.9074092590740926,0.9983001699830018,1.0,0.9731780760200968,0.9993931686551354,0.9993931686551354,0.9738200783096294,0.9997000299970004,0.9997000299970004,1.0
BAI,OA,EEG16,F4,beta,25,0.0922683735618099,0.6609073971525492,6606,0.6606339366063394,0.8787121287871212,0.9957004299570044,1.0,0.9731780760200968,0.9993931686551354,0.9993931686551354,0.9738200783096294,0.9997000299970004,0.9997000299970004,1.0
BAI,OA,EEG17,C3,delta,25,0.0222579551267085,0.9158958364873856,9189,0.9189081091890812,1.0,1.0,1.0,0.9731780760200968,0.9993931686551354,0.9993931686551354,0.9738200783096294,0.9997000299970004,0.9997000299970004,1.0
BAI,OA,EEG18,C3,theta,25,0.0574409761655654,0.7850637819873638,7834,0.7834216578342166,0.9763023697630236,1.0,1.0,0.9731780760200968,0.9993931686551354,0.9993931686551354,0.9738200783096294,0.9997000299970004,0.9997000299970004,1.0
BAI,OA,EEG19,C3,alpha,25,0.0947320462329615,0.6524033626081862,6530,0.653034696530347,0.8701129887011299,0.9946005399460054,1.0,0.9731780760200968,0.9993931686551354,0.9993931686551354,0.9738200783096294,0.9997000299970004,0.9997000299970004,1.0
BAI,OA,EEG20,C3,beta,25,0.1041507869828761,0.6202865240157371,6193,0.6193380661933806,0.8342165783421658,0.9903009699030098,1.0,0.9731780760200968,0.9993931686551354,0.9993931686551354,0.9738200783096294,0.9997000299970004,0.9997000299970004,1.0
BAI,OA,EEG21,C4,delta,25,0.0147596340761048,0.9441749131691444,9470,0.947005299470053,1.0,1.0,1.0,0.9731780760200968,0.9993931686551354,0.9993931686551354,0.9738200783096294,0.9997000299970004,0.9997000299970004,1.0
BAI,OA,EEG22,C4,theta,25,0.0500768697201788,0.8121025907303246,8125,0.8125187481251874,0.9876012398760124,1.0,1.0,0.9731780760200968,0.9993931686551354,0.9993931686551354,0.9738200783096294,0.9997000299970004,0.9997000299970004,1.0
BAI,OA,EEG23,C4,alpha,25,0.0951627188431374,0.650921061651988,6499,0.6499350064993501,0.8683131686831317,0.9943005699430058,1.0,0.9731780760200968,0.9993931686551354,0.9993931686551354,0.9738200783096294,0.9997000299970004,0.9997000299970004,1.0
BAI,OA,EEG24,C4,beta,25,0.0998949816530772,0.6347192319463812,6316,0.6316368363163684,0.8514148585141486,0.9926007399260074,1.0,0.9731780760200968,0.9993931686551354,0.9993931686551354,0.9738200783096294,0.9997000299970004,0.9997000299970004,1.0
BAI,OA,EEG25,P3,delta,25,0.0241676920767588,0.9087079824479276,9114,0.9114088591140886,1.0,1.0,1.0,0.9731780760200968,0.9993931686551354,0.9993931686551354,0.9738200783096294,0.9997000299970004,0.9997000299970004,1.0
BAI,OA,EEG26,P3,theta,25,0.0534300125929312,0.7997629463917364,7995,0.7995200479952005,0.9829017098290171,1.0,1.0,0.9731780760200968,0.9993931686551354,0.9993931686551354,0.9738200783096294,0.9997000299970004,0.9997000299970004,1.0
BAI,OA,EEG27,P3,alpha,25,0.0990732205609224,0.6375212684629576,6354,0.6354364563543645,0.8553144685531446,0.9929007099290073,1.0,0.9731780760200968,0.9993931686551354,0.9993931686551354,0.9738200783096294,0.9997000299970004,0.9997000299970004,1.0
BAI,OA,EEG28,P3,beta,25,0.1081652583198451,0.6067960708035433,6056,0.6056394360563944,0.8203179682031797,0.987001299870013,1.0,0.9731780760200968,0.9993931686551354,0.9993931686551354,0.9738200783096294,0.9997000299970004,0.9997000299970004,1.0
BAI,OA,EEG29,P4,delta,25,0.0153248398747572,0.942040593654026,9450,0.945005499450055,1.0,1.0,1.0,0.9731780760200968,0.9993931686551354,0.9993931686551354,0.9738200783096294,0.9997000299970004,0.9997000299970004,1.0
BAI,OA,EEG30,P4,theta,25,0.0463629813761507,0.8258206728354555,8237,0.8237176282371763,0.9925007499250076,1.0,1.0,0.9731780760200968,0.9993931686551354,0.9993931686551354,0.9738200783096294,0.9997000299970004,0.9997000299970004,1.0
BAI,OA,EEG31,P4,alpha,25,0.0848781771166084,0.6866591657144347,6884,0.6884311568843116,0.9043095690430956,0.9982001799820018,1.0,0.9731780760200968,0.9993931686551354,0.9993931686551354,0.9738200783096294,0.9997000299970004,0.9997000299970004,1.0
BAI,OA,EEG32,P4,beta,25,0.0914866241734639,0.6636144387538713,6636,0.6636336366363363,0.8825117488251175,0.995900409959004,1.0,0.9731780760200968,0.9993931686551354,0.9993931686551354,0.9738200783096294,0.9997000299970004,0.9997000299970004,1.0
BAI,OA,EEG33,O1,delta,25,0.0111080964283775,0.9579721685822828,9586,0.9586041395860414,1.0,1.0,1.0,0.9731780760200968,0.9993931686551354,0.9993931686551354,0.9738200783096294,0.9997000299970004,0.9997000299970004,1.0
BAI,OA,EEG34,O1,theta,25,0.0459062035391932,0.8275114009416962,8265,0.8265173482651735,0.9928007199280072,1.0,1.0,0.9731780760200968,0.9993931686551354,0.9993931686551354,0.9738200783096294,0.9997000299970004,0.9997000299970004,1.0
BAI,OA,EEG35,O1,alpha,25,0.1013901624812879,0.6296334990740821,6280,0.6280371962803719,0.845015498450155,0.9915008499150084,1.0,0.9731780760200968,0.9993931686551354,0.9993931686551354,0.9738200783096294,0.9997000299970004,0.9997000299970004,1.0
BAI,OA,EEG36,O1,beta,25,0.0981669640557609,0.6406170304481725,6381,0.6381361863813618,0.8578142185781422,0.9931006899310068,1.0,0.9731780760200968,0.9993931686551354,0.9993931686551354,0.9738200783096294,0.9997000299970004,0.9997000299970004,1.0
BAI,OA,EEG37,O2,delta,25,0.0142792236008182,0.9459893247979256,9488,0.9488051194880512,1.0,1.0,1.0,0.9731780760200968,0.9993931686551354,0.9993931686551354,0.9738200783096294,0.9997000299970004,0.9997000299970004,1.0
BAI,OA,EEG38,O2,theta,25,0.0501028564750954,0.8120067872471765,8116,0.8116188381161884,0.9876012398760124,1.0,1.0,0.9731780760200968,0.9993931686551354,0.9993931686551354,0.9738200783096294,0.9997000299970004,0.9997000299970004,1.0
BAI,OA,EEG39,O2,alpha,25,0.0878260651586303,0.6763443278082079,6774,0.6774322567743226,0.8941105889411058,0.9971002899710028,1.0,0.9731780760200968,0.9993931686551354,0.9993931686551354,0.9738200783096294,0.9997000299970004,0.9997000299970004,1.0
BAI,OA,EEG40,O2,beta,25,0.0964280776583128,0.6465733773088778,6458,0.6458354164583542,0.8634136586341365,0.9936006399360064,1.0,0.9731780760200968,0.9993931686551354,0.9993931686551354,0.9738200783096294,0.9997000299970004,0.9997000299970004,1.0
BAI,OA,EEG41,F7,delta,25,-0.0001603183274326,0.9993931686551354,9997,0.9997000299970004,1.0,1.0,1.0,0.9993931686551354,0.9993931686551354,0.9993931686551354,0.9997000299970004,0.9997000299970004,0.9997000299970004,1.0
BAI,OA,EEG42,F7,theta,25,0.0341150244576,0.8713932514433886,8689,0.8689131086891311,0.9991000899910008,1.0,1.0,0.9731780760200968,0.9993931686551354,0.9993931686551354,0.9738200783096294,0.9997000299970004,0.9997000299970004,1.0
BAI,OA,EEG43,F7,alpha,25,0.0835841504403226,0.6912044273001505,6943,0.6943305669433056,0.9098090190980902,0.9984001599840016,1.0,0.9731780760200968,0.9993931686551354,0.9993931686551354,0.9738200783096294,0.9997000299970004,0.9997000299970004,1.0
BAI,OA,EEG44,F7,beta,25,0.0855274077792982,0.6843827113404769,6831,0.6831316868313169,0.9028097190280971,0.998100189981002,1.0,0.9731780760200968,0.9993931686551354,0.9993931686551354,0.9738200783096294,0.9997000299970004,0.9997000299970004,1.0
BAI,OA,EEG45,F8,delta,25,0.0153161828140602,0.9420732813923052,9448,0.9448055194480552,1.0,1.0,1.0,0.9731780760200968,0.9993931686551354,0.9993931686551354,0.9738200783096294,0.9997000299970004,0.9997000299970004,1.0
BAI,OA,EEG46,F8,theta,25,0.0454091492855244,0.8293520567212774,8278,0.8278172182781722,0.9938006199380062,1.0,1.0,0.9731780760200968,0.9993931686551354,0.9993931686551354,0.9738200783096294,0.9997000299970004,0.9997000299970004,1.0
BAI,OA,EEG47,F8,alpha,25,0.0730495641454911,0.7285818463884154,7260,0.726027397260274,0.9417058294170584,0.9995000499950004,1.0,0.9731780760200968,0.9993931686551354,0.9993931686551354,0.9738200783096294,0.9997000299970004,0.9997000299970004,1.0
BAI,OA,EEG48,F8,beta,25,0.0947246369800863,0.6524288752122358,6499,0.6499350064993501,0.8702129787021298,0.9946005399460054,1.0,0.9731780760200968,0.9993931686551354,0.9993931686551354,0.9738200783096294,0.9997000299970004,0.9997000299970004,1.0
BAI,OA,EEG49,T7,delta,25,0.0201578587943233,0.923807557181454,9269,0.926907309269073,1.0,1.0,1.0,0.9731780760200968,0.9993931686551354,0.9993931686551354,0.9738200783096294,0.9997000299970004,0.9997000299970004,1.0
BAI,OA,EEG50,T7,theta,25,0.0566421883559885,0.787985609114895,7863,0.7863213678632137,0.977902209779022,1.0,1.0,0.9731780760200968,0.9993931686551354,0.9993931686551354,0.9738200783096294,0.9997000299970004,0.9997000299970004,1.0
BAI,OA,EEG51,T7,alpha,25,0.0854871943299125,0.6845236378214012,6830,0.683031696830317,0.9028097190280971,0.998100189981002,1.0,0.9731780760200968,0.9993931686551354,0.9993931686551354,0.9738200783096294,0.9997000299970004,0.9997000299970004,1.0
BAI,OA,EEG52,T7,beta,25,0.095901886914787,0.6483799748171313,6482,0.6482351764823517,0.8657134286571343,0.9938006199380062,1.0,0.9731780760200968,0.9993931686551354,0.9993931686551354,0.9738200783096294,0.9997000299970004,0.9997000299970004,1.0
BAI,OA,EEG53,T8,delta,25,0.0267454061464186,0.8990171506319933,9020,0.902009799020098,1.0,1.0,1.0,0.9731780760200968,0.9993931686551354,0.9993931686551354,0.9738200783096294,0.9997000299970004,0.9997000299970004,1.0
BAI,OA,EEG54,T8,theta,25,0.0509419484724331,0.8089147862905202,8064,0.8064193580641936,0.985901409859014,1.0,1.0,0.9731780760200968,0.9993931686551354,0.9993931686551354,0.9738200783096294,0.9997000299970004,0.9997000299970004,1.0
BAI,OA,EEG55,T8,alpha,25,0.0952084186728757,0.6507638461452097,6509,0.650934906509349,0.8682131786821318,0.9942005799420058,1.0,0.9731780760200968,0.9993931686551354,0.9993931686551354,0.9738200783096294,0.9997000299970004,0.9997000299970004,1.0
BAI,OA,EEG56,T8,beta,25,0.0915867359334603,0.6632675420741322,6619,0.6619338066193381,0.882011798820118,0.995900409959004,1.0,0.9731780760200968,0.9993931686551354,0.9993931686551354,0.9738200783096294,0.9997000299970004,0.9997000299970004,1.0
BAI,OA,EEG57,P7,delta,25,0.0286452679496036,0.8918835884277805,8978,0.8978102189781022,0.999900009999,1.0,1.0,0.9731780760200968,0.9993931686551354,0.9993931686551354,0.9738200783096294,0.9997000299970004,0.9997000299970004,1.0
BAI,OA,EEG58,P7,theta,25,0.0591364516796851,0.7788714285304505,7784,0.7784221577842215,0.972102789721028,1.0,1.0,0.9731780760200968,0.9993931686551354,0.9993931686551354,0.9738200783096294,0.9997000299970004,0.9997000299970004,1.0
BAI,OA,EEG59,P7,alpha,25,0.1154377831899794,0.5826750233608762,5835,0.5835416458354165,0.7922207779222078,0.9829017098290171,0.999900009999,0.9731780760200968,0.9993931686551354,0.9993931686551354,0.9738200783096294,0.9997000299970004,0.9997000299970004,1.0
BAI,OA,EEG60,P7,beta,25,0.1042158486842177,0.6200669182585391,6201,0.6201379862013798,0.833916608339166,0.9903009699030098,1.0,0.9731780760200968,0.9993931686551354,0.9993931686551354,0.9738200783096294,0.9997000299970004,0.9997000299970004,1.0
BAI,OA,EEG61,P8,delta,25,0.0295664431708359,0.8884276811802807,8923,0.8923107689231077,0.9996000399960004,1.0,1.0,0.9731780760200968,0.9993931686551354,0.9993931686551354,0.9738200783096294,0.9997000299970004,0.9997000299970004,1.0
BAI,OA,EEG62,P8,theta,25,0.058173785350852,0.7823857754249574,7809,0.7809219078092191,0.9744025597440256,1.0,1.0,0.9731780760200968,0.9993931686551354,0.9993931686551354,0.9738200783096294,0.9997000299970004,0.9997000299970004,1.0
BAI,OA,EEG63,P8,alpha,25,0.102946516075873,0.6243570433388499,6223,0.6223377662233777,0.8384161583841616,0.9908009199080092,1.0,0.9731780760200968,0.9993931686551354,0.9993931686551354,0.9738200783096294,0.9997000299970004,0.9997000299970004,1.0
BAI,OA,EEG64,P8,beta,25,0.0933602647220134,0.6571333201467421,6560,0.656034396560344,0.875012498750125,0.9953004699530048,1.0,0.9731780760200968,0.9993931686551354,0.9993931686551354,0.9738200783096294,0.9997000299970004,0.9997000299970004,1.0
MSPSS,OA,EEG1,Fp1,delta,25,0.1172892183826691,0.576601722434813,5824,0.5824417558244176,0.7935206479352065,0.964003599640036,0.9996000399960004,0.7703600581031809,0.992516486086388,0.9993931686551354,0.7804219578042195,0.9818925084235762,0.9997000299970004,1.0
MSPSS,OA,EEG2,Fp1,theta,25,0.0702769842688903,0.7385241500973745,7483,0.7483251674832517,0.9491050894910508,0.9991000899910008,1.0,0.7703600581031809,0.992516486086388,0.9993931686551354,0.7804219578042195,0.9818925084235762,0.9997000299970004,1.0
MSPSS,OA,EEG3,Fp1,alpha,25,0.1520889287166634,0.4679912927476262,4686,0.4686531346865313,0.6672332766723328,0.9043095690430956,0.9937006299370064,0.7703600581031809,0.992516486086388,0.9993931686551354,0.7804219578042195,0.9818925084235762,0.9997000299970004,1.0
MSPSS,OA,EEG4,Fp1,beta,25,0.1011262418138721,0.6305300217077692,6315,0.6315368463153684,0.8506149385061493,0.9831016898310168,1.0,0.7703600581031809,0.992516486086388,0.9993931686551354,0.7804219578042195,0.9818925084235762,0.9997000299970004,1.0
MSPSS,OA,EEG5,Fp2,delta,25,0.1140508192506613,0.5872428688389463,5926,0.5926407359264073,0.8041195880411959,0.9694030596940306,0.999900009999,0.7703600581031809,0.992516486086388,0.9993931686551354,0.7804219578042195,0.9818925084235762,0.9997000299970004,1.0
MSPSS,OA,EEG6,Fp2,theta,25,0.0650437889429802,0.7574005240247141,7682,0.7682231776822318,0.962103789621038,0.9997000299970004,1.0,0.7703600581031809,0.992516486086388,0.9993931686551354,0.7804219578042195,0.9818925084235762,0.9997000299970004,1.0
MSPSS,OA,EEG7,Fp2,alpha,25,0.1678223302980838,0.422631929154582,4193,0.4193580641935806,0.6098390160983902,0.8676132386761324,0.989001099890011,0.7703600581031809,0.992516486086388,0.9993931686551354,0.7804219578042195,0.9818925084235762,0.9997000299970004,1.0
MSPSS,OA,EEG8,Fp2,beta,25,0.104482044225524,0.6191687455996779,6223,0.6223377662233777,0.8403159684031597,0.98000199980002,1.0,0.7703600581031809,0.992516486086388,0.9993931686551354,0.7804219578042195,0.9818925084235762,0.9997000299970004,1.0
MSPSS,OA,EEG9,F3,delta,25,0.1189833765813473,0.5710688804758138,5742,0.5742425757424258,0.7877212278772123,0.961903809619038,0.9995000499950004,0.7703600581031809,0.992516486086388,0.9993931686551354,0.7804219578042195,0.9818925084235762,0.9997000299970004,1.0
MSPSS,OA,EEG10,F3,theta,25,0.0712295987475512,0.7351034385322023,7461,0.7461253874612539,0.9476052394760524,0.9989001099890013,1.0,0.7703600581031809,0.992516486086388,0.9993931686551354,0.7804219578042195,0.9818925084235762,0.9997000299970004,1.0
MSPSS,OA,EEG11,F3,alpha,25,0.1353345388145241,0.5189222916574078,5170,0.5170482951704829,0.7288271172882712,0.9343065693430656,0.998100189981002,0.7703600581031809,0.992516486086388,0.9993931686551354,0.7804219578042195,0.9818925084235762,0.9997000299970004,1.0
MSPSS,OA,EEG12,F3,beta,25,0.0991495731749416,0.6372607171766975,6403,0.6403359664033597,0.8567143285671432,0.9852014798520148,1.0,0.7703600581031809,0.992516486086388,0.9993931686551354,0.7804219578042195,0.9818925084235762,0.9997000299970004,1.0
MSPSS,OA,EEG13,F4,delta,25,0.1197038749688644,0.5687230218834068,5728,0.5728427157284272,0.7849215078492151,0.9607039296070392,0.9995000499950004,0.7703600581031809,0.992516486086388,0.9993931686551354,0.7804219578042195,0.9818925084235762,0.9997000299970004,1.0
MSPSS,OA,EEG14,F4,theta,25,0.0631356511904622,0.7643176263267963,7744,0.7744225577442255,0.967003299670033,0.9998000199980002,1.0,0.7703600581031809,0.992516486086388,0.9993931686551354,0.7804219578042195,0.9818925084235762,0.9997000299970004,1.0
MSPSS,OA,EEG15,F4,alpha,25,0.1508844510973043,0.4715641683809219,4672,0.4672532746725327,0.6714328567143286,0.9062093790620938,0.9942005799420058,0.7703600581031809,0.992516486086388,0.9993931686551354,0.7804219578042195,0.9818925084235762,0.9997000299970004,1.0
MSPSS,OA,EEG16,F4,beta,25,0.1025170651677327,0.6258112167046936,6293,0.6293370662933707,0.8463153684631537,0.982101789821018,1.0,0.7703600581031809,0.992516486086388,0.9993931686551354,0.7804219578042195,0.9818925084235762,0.9997000299970004,1.0
MSPSS,OA,EEG17,C3,delta,25,0.1158725295890583,0.5812464160365891,5868,0.5868413158684131,0.798020197980202,0.965903409659034,0.9996000399960004,0.7703600581031809,0.992516486086388,0.9993931686551354,0.7804219578042195,0.9818925084235762,0.9997000299970004,1.0
MSPSS,OA,EEG18,C3,theta,25,0.0614727603672531,0.7703600581031809,7804,0.7804219578042195,0.9705029497050296,0.9998000199980002,1.0,0.7703600581031809,0.992516486086388,0.9993931686551354,0.7804219578042195,0.9818925084235762,0.9997000299970004,1.0
MSPSS,OA,EEG19,C3,alpha,25,0.1370415366546758,0.5136141060773333,5126,0.5126487351264873,0.7237276272372762,0.9311068893110688,0.9978002199780022,0.7703600581031809,0.992516486086388,0.9993931686551354,0.7804219578042195,0.9818925084235762,0.9997000299970004,1.0
MSPSS,OA,EEG20,C3,beta,25,0.0944311386666069,0.653439795723178,6555,0.6555344465553444,0.8728127187281272,0.9902009799020098,1.0,0.7703600581031809,0.992516486086388,0.9993931686551354,0.7804219578042195,0.9818925084235762,0.9997000299970004,1.0
MSPSS,OA,EEG21,C4,delta,25,0.1216899659559857,0.5622788957649869,5683,0.5683431656834317,0.778022197780222,0.9576042395760423,0.9994000599940006,0.7703600581031809,0.992516486086388,0.9993931686551354,0.7804219578042195,0.9818925084235762,0.9997000299970004,1.0
MSPSS,OA,EEG22,C4,theta,25,0.0674909800222711,0.7485558562254994,7567,0.7567243275672433,0.9557044295570444,0.9994000599940006,1.0,0.7703600581031809,0.992516486086388,0.9993931686551354,0.7804219578042195,0.9818925084235762,0.9997000299970004,1.0
MSPSS,OA,EEG23,C4,alpha,25,0.1401801314424624,0.5039234706978871,5019,0.501949805019498,0.710928907109289,0.926007399260074,0.9969003099690033,0.7703600581031809,0.992516486086388,0.9993931686551354,0.7804219578042195,0.9818925084235762,0.9997000299970004,1.0
MSPSS,OA,EEG24,C4,beta,25,0.1017023619124392,0.6285736334931736,6297,0.6297370262973703,0.8482151784821518,0.9828017198280172,1.0,0.7703600581031809,0.992516486086388,0.9993931686551354,0.7804219578042195,0.9818925084235762,0.9997000299970004,1.0
MSPSS,OA,EEG25,P3,delta,25,0.1160728582631253,0.5805886369204166,5853,0.5853414658534146,0.7975202479752025,0.9654034596540346,0.9996000399960004,0.7703600581031809,0.992516486086388,0.9993931686551354,0.7804219578042195,0.9818925084235762,0.9997000299970004,1.0
MSPSS,OA,EEG26,P3,theta,25,0.0689072882420242,0.7434510069066121,7524,0.7524247575242475,0.952204779522048,0.9992000799920008,1.0,0.7703600581031809,0.992516486086388,0.9993931686551354,0.7804219578042195,0.9818925084235762,0.9997000299970004,1.0
MSPSS,OA,EEG27,P3,alpha,25,0.1389465005575559,0.5077216215416208,5048,0.5048495150484952,0.7151284871512849,0.928107189281072,0.9972002799720028,0.7703600581031809,0.992516486086388,0.9993931686551354,0.7804219578042195,0.9818925084235762,0.9997000299970004,1.0
MSPSS,OA,EEG28,P3,beta,25,0.0989693676029852,0.6378757310438936,6412,0.6412358764123588,0.8571142885711429,0.9853014698530148,1.0,0.7703600581031809,0.992516486086388,0.9993931686551354,0.7804219578042195,0.9818925084235762,0.9997000299970004,1.0
MSPSS,OA,EEG29,P4,delta,25,0.1177596772460533,0.5750629178316811,5793,0.5793420657934206,0.7917208279172083,0.9633036696330368,0.9995000499950004,0.7703600581031809,0.992516486086388,0.9993931686551354,0.7804219578042195,0.9818925084235762,0.9997000299970004,1.0
MSPSS,OA,EEG30,P4,theta,25,0.0699854149129466,0.7395721062052111,7475,0.7475252474752525,0.95000499950005,0.9992000799920008,1.0,0.7703600581031809,0.992516486086388,0.9993931686551354,0.7804219578042195,0.9818925084235762,0.9997000299970004,1.0
MSPSS,OA,EEG31,P4,alpha,25,0.1270802348339421,0.5449574636306151,5428,0.5428457154284572,0.7568243175682432,0.948005199480052,0.9993000699930008,0.7703600581031809,0.992516486086388,0.9993931686551354,0.7804219578042195,0.9818925084235762,0.9997000299970004,1.0
MSPSS,OA,EEG32,P4,beta,25,0.0990776417772612,0.6375061800380526,6409,0.640935906409359,0.8568143185681432,0.9853014698530148,1.0,0.7703600581031809,0.992516486086388,0.9993931686551354,0.7804219578042195,0.9818925084235762,0.9997000299970004,1.0
MSPSS,OA,EEG33,O1,delta,25,0.1268348530570933,0.5457405827233133,5514,0.5514448555144486,0.7578242175782421,0.9487051294870512,0.9993000699930008,0.7703600581031809,0.992516486086388,0.9993931686551354,0.7804219578042195,0.9818925084235762,0.9997000299970004,1.0
MSPSS,OA,EEG34,O1,theta,25,0.0732682170083721,0.7277995562722936,7379,0.7379262073792621,0.9432056794320568,0.9986001399860014,1.0,0.7703600581031809,0.992516486086388,0.9993931686551354,0.7804219578042195,0.9818925084235762,0.9997000299970004,1.0
MSPSS,OA,EEG35,O1,alpha,25,0.1277335669195256,0.5428749415951832,5410,0.541045895410459,0.754024597540246,0.9467053294670532,0.9991000899910008,0.7703600581031809,0.992516486086388,0.9993931686551354,0.7804219578042195,0.9818925084235762,0.9997000299970004,1.0
MSPSS,OA,EEG36,O1,beta,25,0.0968411117726685,0.6451566462610994,6480,0.648035196480352,0.8642135786421358,0.9872012798720128,1.0,0.7703600581031809,0.992516486086388,0.9993931686551354,0.7804219578042195,0.9818925084235762,0.9997000299970004,1.0
MSPSS,OA,EEG37,O2,delta,25,0.123962256309229,0.5549467958860327,5594,0.5594440555944405,0.7695230476952305,0.9527047295270472,0.9994000599940006,0.7703600581031809,0.992516486086388,0.9993931686551354,0.7804219578042195,0.9818925084235762,0.9997000299970004,1.0
MSPSS,OA,EEG38,O2,theta,25,0.0690923271368809,0.7427848361536137,7526,0.7526247375262474,0.952104789521048,0.9992000799920008,1.0,0.7703600581031809,0.992516486086388,0.9993931686551354,0.7804219578042195,0.9818925084235762,0.9997000299970004,1.0
MSPSS,OA,EEG39,O2,alpha,25,0.1389195936074998,0.5078046196250502,5046,0.5046495350464953,0.7152284771522848,0.928107189281072,0.9972002799720028,0.7703600581031809,0.992516486086388,0.9993931686551354,0.7804219578042195,0.9818925084235762,0.9997000299970004,1.0
MSPSS,OA,EEG40,O2,beta,25,0.1028326061704372,0.624742623508525,6293,0.6293370662933707,0.8456154384561544,0.9817018298170184,1.0,0.7703600581031809,0.992516486086388,0.9993931686551354,0.7804219578042195,0.9818925084235762,0.9997000299970004,1.0
MSPSS,OA,EEG41,F7,delta,25,0.1381386213266388,0.5102165245150851,5154,0.5154484551544846,0.7185281471852815,0.9294070592940706,0.9973002699730028,0.7703600581031809,0.992516486086388,0.9993931686551354,0.7804219578042195,0.9818925084235762,0.9997000299970004,1.0
MSPSS,OA,EEG42,F7,theta,25,0.0879926649509091,0.6757630526108211,6802,0.6802319768023197,0.896010398960104,0.9937006299370064,1.0,0.7703600581031809,0.992516486086388,0.9993931686551354,0.7804219578042195,0.9818925084235762,0.9997000299970004,1.0
MSPSS,OA,EEG43,F7,alpha,25,0.1307127926094052,0.5334257269183651,5308,0.5308469153084692,0.7437256274372562,0.9416058394160584,0.9986001399860014,0.7703600581031809,0.992516486086388,0.9993931686551354,0.7804219578042195,0.9818925084235762,0.9997000299970004,1.0
MSPSS,OA,EEG44,F7,beta,25,0.1126309676771866,0.591934977433251,5959,0.595940405959404,0.8113188681131887,0.9717028297170284,0.999900009999,0.7703600581031809,0.992516486086388,0.9993931686551354,0.7804219578042195,0.9818925084235762,0.9997000299970004,1.0
MSPSS,OA,EEG45,F8,delta,25,0.1228716870968485,0.5584603381703879,5631,0.5631436856314369,0.7742225777422258,0.9547045295470452,0.9994000599940006,0.7703600581031809,0.992516486086388,0.9993931686551354,0.7804219578042195,0.9818925084235762,0.9997000299970004,1.0
MSPSS,OA,EEG46,F8,theta,25,0.0752101039947238,0.7208636169362789,7316,0.7316268373162683,0.9363063693630636,0.9977002299770024,1.0,0.7703600581031809,0.992516486086388,0.9993931686551354,0.7804219578042195,0.9818925084235762,0.9997000299970004,1.0
MSPSS,OA,EEG47,F8,alpha,25,0.1421039659044053,0.4980283499210776,4930,0.4930506949305069,0.7045295470452955,0.922007799220078,0.9964003599640036,0.7703600581031809,0.992516486086388,0.9993931686551354,0.7804219578042195,0.9818925084235762,0.9997000299970004,1.0
MSPSS,OA,EEG48,F8,beta,25,0.0985038212599598,0.6394656451241255,6421,0.6421357864213578,0.859014098590141,0.9856014398560144,1.0,0.7703600581031809,0.992516486086388,0.9993931686551354,0.7804219578042195,0.9818925084235762,0.9997000299970004,1.0
MSPSS,OA,EEG49,T7,delta,25,0.1220898038784796,0.5609855622305847,5658,0.5658434156584341,0.7766223377662234,0.9568043195680432,0.9994000599940006,0.7703600581031809,0.992516486086388,0.9993931686551354,0.7804219578042195,0.9818925084235762,0.9997000299970004,1.0
MSPSS,OA,EEG50,T7,theta,25,0.0702181234942308,0.7387356705492562,7510,0.7510248975102489,0.9492050794920508,0.9991000899910008,1.0,0.7703600581031809,0.992516486086388,0.9993931686551354,0.7804219578042195,0.9818925084235762,0.9997000299970004,1.0
MSPSS,OA,EEG51,T7,alpha,25,0.1518940927711255,0.4685682896372505,4656,0.4656534346565343,0.6682331766823317,0.9044095590440956,0.993900609939006,0.7703600581031809,0.992516486086388,0.9993931686551354,0.7804219578042195,0.9818925084235762,0.9997000299970004,1.0
MSPSS,OA,EEG52,T7,beta,25,0.1033506777264162,0.6229897482092321,6261,0.6261373862613738,0.844015598440156,0.9813018698130188,1.0,0.7703600581031809,0.992516486086388,0.9993931686551354,0.7804219578042195,0.9818925084235762,0.9997000299970004,1.0
MSPSS,OA,EEG53,T8,delta,25,0.109788488219806,0.6013762551585604,6066,0.6066393360663933,0.8229177082291771,0.9753024697530248,1.0,0.7703600581031809,0.992516486086388,0.9993931686551354,0.7804219578042195,0.9818925084235762,0.9997000299970004,1.0
MSPSS,OA,EEG54,T8,theta,25,0.0687347180202544,0.7440724499133521,7538,0.7538246175382461,0.952904709529047,0.9992000799920008,1.0,0.7703600581031809,0.992516486086388,0.9993931686551354,0.7804219578042195,0.9818925084235762,0.9997000299970004,1.0
MSPSS,OA,EEG55,T8,alpha,25,0.1252860949343016,0.5506953166506162,5502,0.5502449755024498,0.7639236076392361,0.9513048695130488,0.9994000599940006,0.7703600581031809,0.992516486086388,0.9993931686551354,0.7804219578042195,0.9818925084235762,0.9997000299970004,1.0
MSPSS,OA,EEG56,T8,beta,25,0.0937075473353088,0.6559346547829813,6568,0.6568343165683431,0.8757124287571243,0.9906009399060094,1.0,0.7703600581031809,0.992516486086388,0.9993931686551354,0.7804219578042195,0.9818925084235762,0.9997000299970004,1.0
MSPSS,OA,EEG57,P7,delta,25,0.1199161270417043,0.568032774292148,5726,0.5726427357264273,0.784021597840216,0.9604039596040396,0.9995000499950004,0.7703600581031809,0.992516486086388,0.9993931686551354,0.7804219578042195,0.9818925084235762,0.9997000299970004,1.0
MSPSS,OA,EEG58,P7,theta,25,0.062002070319303,0.7684352794462105,7765,0.7765223477652234,0.9696030396960305,0.9998000199980002,1.0,0.7703600581031809,0.992516486086388,0.9993931686551354,0.7804219578042195,0.9818925084235762,0.9997000299970004,1.0
MSPSS,OA,EEG59,P7,alpha,25,0.1426130700548022,0.4964740759325492,4932,0.4932506749325067,0.7023297670232976,0.9211078892110788,0.9963003699630038,0.7703600581031809,0.992516486086388,0.9993931686551354,0.7804219578042195,0.9818925084235762,0.9997000299970004,1.0
MSPSS,OA,EEG60,P7,beta,25,0.0935603527331328,0.6564426044603671,6594,0.6594340565943405,0.8764123587641236,0.9906009399060094,1.0,0.7703600581031809,0.992516486086388,0.9993931686551354,0.7804219578042195,0.9818925084235762,0.9997000299970004,1.0
MSPSS,OA,EEG61,P8,delta,25,0.1102539785703905,0.5998257962091731,6056,0.6056394360563944,0.8213178682131786,0.9747025297470252,1.0,0.7703600581031809,0.992516486086388,0.9993931686551354,0.7804219578042195,0.9818925084235762,0.9997000299970004,1.0
MSPSS,OA,EEG62,P8,theta,25,0.0616620244505504,0.7696716674068336,7801,0.7801219878012199,0.9702029797020298,0.9998000199980002,1.0,0.7703600581031809,0.992516486086388,0.9993931686551354,0.7804219578042195,0.9818925084235762,0.9997000299970004,1.0
MSPSS,OA,EEG63,P8,alpha,25,0.1263609277691658,0.5472545552050948,5465,0.5465453454654534,0.7605239476052394,0.9492050794920508,0.9993000699930008,0.7703600581031809,0.992516486086388,0.9993931686551354,0.7804219578042195,0.9818925084235762,0.9997000299970004,1.0
MSPSS,OA,EEG64,P8,beta,25,0.0936432820870176,0.6561564076633932,6577,0.6577342265773423,0.8760123987601239,0.9906009399060094,1.0,0.7703600581031809,0.992516486086388,0.9993931686551354,0.7804219578042195,0.9818925084235762,0.9997000299970004,1.0
DISCREPANCY_Z_BAI_MINUS_MSPSS,OA,EEG1,Fp1,delta,25,-0.0445091656111196,0.8326870306713207,8307,0.8307169283071693,0.9934006599340066,1.0,1.0,0.9993242920620106,0.9993242920620106,0.9993931686551354,0.9993000699930008,0.9993000699930008,0.9997000299970004,1.0
DISCREPANCY_Z_BAI_MINUS_MSPSS,OA,EEG2,Fp1,theta,25,0.0042331309931331,0.9839779035593078,9842,0.9842015798420158,1.0,1.0,1.0,0.9993242920620106,0.9993242920620106,0.9993931686551354,0.9993000699930008,0.9993000699930008,0.9997000299970004,1.0
DISCREPANCY_Z_BAI_MINUS_MSPSS,OA,EEG3,Fp1,alpha,25,-0.0038615531075751,0.9853841452797434,9853,0.9853014698530148,1.0,1.0,1.0,0.9993242920620106,0.9993242920620106,0.9993931686551354,0.9993000699930008,0.9993000699930008,0.9997000299970004,1.0
DISCREPANCY_Z_BAI_MINUS_MSPSS,OA,EEG4,Fp1,beta,25,0.0149046595143155,0.9436272345927796,9449,0.944905509449055,1.0,1.0,1.0,0.9993242920620106,0.9993242920620106,0.9993931686551354,0.9993000699930008,0.9993000699930008,0.9997000299970004,1.0
DISCREPANCY_Z_BAI_MINUS_MSPSS,OA,EEG5,Fp2,delta,25,-0.0507471644303289,0.8096323068655666,8085,0.8085191480851914,0.9856014398560144,1.0,1.0,0.9993242920620106,0.9993242920620106,0.9993931686551354,0.9993000699930008,0.9993000699930008,0.9997000299970004,1.0
DISCREPANCY_Z_BAI_MINUS_MSPSS,OA,EEG6,Fp2,theta,25,-0.0035757250355581,0.9864658946758312,9860,0.986001399860014,1.0,1.0,1.0,0.9993242920620106,0.9993242920620106,0.9993931686551354,0.9993000699930008,0.9993000699930008,0.9997000299970004,1.0
DISCREPANCY_Z_BAI_MINUS_MSPSS,OA,EEG7,Fp2,alpha,25,-0.0493085287162796,0.8149363582145136,8199,0.81991800819918,0.9882011798820118,1.0,1.0,0.9993242920620106,0.9993242920620106,0.9993931686551354,0.9993000699930008,0.9993000699930008,0.9997000299970004,1.0
DISCREPANCY_Z_BAI_MINUS_MSPSS,OA,EEG8,Fp2,beta,25,-0.0002339612184324,0.9991144182410532,9987,0.9987001299870012,1.0,1.0,1.0,0.9993242920620106,0.9993242920620106,0.9993931686551354,0.9993000699930008,0.9993000699930008,0.9997000299970004,1.0
DISCREPANCY_Z_BAI_MINUS_MSPSS,OA,EEG9,F3,delta,25,-0.0565889776032183,0.7881803442086113,7878,0.7878212178782121,0.978002199780022,1.0,1.0,0.9993242920620106,0.9993242920620106,0.9993931686551354,0.9993000699930008,0.9993000699930008,0.9997000299970004,1.0
DISCREPANCY_Z_BAI_MINUS_MSPSS,OA,EEG10,F3,theta,25,-0.0058231648354526,0.977960973158702,9763,0.9763023697630236,1.0,1.0,1.0,0.9993242920620106,0.9993242920620106,0.9993931686551354,0.9993000699930008,0.9993000699930008,0.9997000299970004,1.0
DISCREPANCY_Z_BAI_MINUS_MSPSS,OA,EEG11,F3,alpha,25,-0.0182292072371711,0.9310796100854204,9344,0.9344065593440656,1.0,1.0,1.0,0.9993242920620106,0.9993242920620106,0.9993931686551354,0.9993000699930008,0.9993000699930008,0.9997000299970004,1.0
DISCREPANCY_Z_BAI_MINUS_MSPSS,OA,EEG12,F3,beta,25,0.0046860558269197,0.9822638663917794,9827,0.9827017298270172,1.0,1.0,1.0,0.9993242920620106,0.9993242920620106,0.9993931686551354,0.9993000699930008,0.9993000699930008,0.9997000299970004,1.0
DISCREPANCY_Z_BAI_MINUS_MSPSS,OA,EEG13,F4,delta,25,-0.0629942449865365,0.7648309376259739,7682,0.7682231776822318,0.9664033596640336,0.9998000199980002,1.0,0.9993242920620106,0.9993242920620106,0.9993931686551354,0.9993000699930008,0.9993000699930008,0.9997000299970004,1.0
DISCREPANCY_Z_BAI_MINUS_MSPSS,OA,EEG14,F4,theta,25,-0.0048340641476548,0.9817037636873628,9816,0.9816018398160185,1.0,1.0,1.0,0.9993242920620106,0.9993242920620106,0.9993931686551354,0.9993000699930008,0.9993000699930008,0.9997000299970004,1.0
DISCREPANCY_Z_BAI_MINUS_MSPSS,OA,EEG15,F4,alpha,25,-0.0421546805503732,0.8414249583221889,8475,0.8475152484751525,0.9948005199480052,1.0,1.0,0.9993242920620106,0.9993242920620106,0.9993931686551354,0.9993000699930008,0.9993000699930008,0.9997000299970004,1.0
DISCREPANCY_Z_BAI_MINUS_MSPSS,OA,EEG16,F4,beta,25,-0.0064644196222434,0.9755346803793322,9773,0.9773022697730228,1.0,1.0,1.0,0.9993242920620106,0.9993242920620106,0.9993931686551354,0.9993000699930008,0.9993000699930008,0.9997000299970004,1.0
DISCREPANCY_Z_BAI_MINUS_MSPSS,OA,EEG17,C3,delta,25,-0.0590479170758394,0.7791944614093386,7787,0.7787221277872213,0.9737026297370264,0.999900009999,1.0,0.9993242920620106,0.9993242920620106,0.9993931686551354,0.9993000699930008,0.9993000699930008,0.9997000299970004,1.0
DISCREPANCY_Z_BAI_MINUS_MSPSS,OA,EEG18,C3,theta,25,-0.0025430704628655,0.9903742753419076,9892,0.9892010798920108,1.0,1.0,1.0,0.9993242920620106,0.9993242920620106,0.9993931686551354,0.9993000699930008,0.9993000699930008,0.9997000299970004,1.0
DISCREPANCY_Z_BAI_MINUS_MSPSS,OA,EEG19,C3,alpha,25,-0.02668694801307,0.8992367716331321,9032,0.9032096790320968,0.999900009999,1.0,1.0,0.9993242920620106,0.9993242920620106,0.9993931686551354,0.9993000699930008,0.9993000699930008,0.9997000299970004,1.0
DISCREPANCY_Z_BAI_MINUS_MSPSS,OA,EEG20,C3,beta,25,0.0061307226046966,0.9767972528042652,9783,0.9783021697830216,1.0,1.0,1.0,0.9993242920620106,0.9993242920620106,0.9993931686551354,0.9993000699930008,0.9993000699930008,0.9997000299970004,1.0
DISCREPANCY_Z_BAI_MINUS_MSPSS,OA,EEG21,C4,delta,25,-0.0674469056340643,0.7487148814323817,7540,0.754024597540246,0.956104389561044,0.9998000199980002,1.0,0.9993242920620106,0.9993242920620106,0.9993931686551354,0.9993000699930008,0.9993000699930008,0.9997000299970004,1.0
DISCREPANCY_Z_BAI_MINUS_MSPSS,OA,EEG22,C4,theta,25,-0.0109840475905919,0.9584411127385636,9570,0.957004299570043,1.0,1.0,1.0,0.9993242920620106,0.9993242920620106,0.9993931686551354,0.9993000699930008,0.9993000699930008,0.9997000299970004,1.0
DISCREPANCY_Z_BAI_MINUS_MSPSS,OA,EEG23,C4,alpha,25,-0.0283949850907335,0.8928228904936257,9007,0.9007099290070993,0.9995000499950004,1.0,1.0,0.9993242920620106,0.9993242920620106,0.9993931686551354,0.9993000699930008,0.9993000699930008,0.9997000299970004,1.0
DISCREPANCY_Z_BAI_MINUS_MSPSS,OA,EEG24,C4,beta,25,-0.0011400152197694,0.9956848733672016,9967,0.9967003299670032,1.0,1.0,1.0,0.9993242920620106,0.9993242920620106,0.9993931686551354,0.9993000699930008,0.9993000699930008,0.9997000299970004,1.0
DISCREPANCY_Z_BAI_MINUS_MSPSS,OA,EEG25,P3,delta,25,-0.0579696982332209,0.783131359009286,7850,0.785021497850215,0.975002499750025,0.999900009999,1.0,0.9993242920620106,0.9993242920620106,0.9993931686551354,0.9993000699930008,0.9993000699930008,0.9997000299970004,1.0
DISCREPANCY_Z_BAI_MINUS_MSPSS,OA,EEG26,P3,theta,25,-0.0097623782871021,0.9630601052517516,9608,0.9608039196080392,1.0,1.0,1.0,0.9993242920620106,0.9993242920620106,0.9993931686551354,0.9993000699930008,0.9993000699930008,0.9997000299970004,1.0
DISCREPANCY_Z_BAI_MINUS_MSPSS,OA,EEG27,P3,alpha,25,-0.0251502946448776,0.9050123504126498,9122,0.9122087791220878,1.0,1.0,1.0,0.9993242920620106,0.9993242920620106,0.9993931686551354,0.9993000699930008,0.9993000699930008,0.9997000299970004,1.0
DISCREPANCY_Z_BAI_MINUS_MSPSS,OA,EEG28,P3,beta,25,0.0058003595658709,0.978047264268498,9796,0.9796020397960205,1.0,1.0,1.0,0.9993242920620106,0.9993242920620106,0.9993931686551354,0.9993000699930008,0.9993000699930008,0.9997000299970004,1.0
DISCREPANCY_Z_BAI_MINUS_MSPSS,OA,EEG29,P4,delta,25,-0.0646113472983848,0.7589665812507459,7633,0.7633236676332367,0.9635036496350364,0.9998000199980002,1.0,0.9993242920620106,0.9993242920620106,0.9993931686551354,0.9993000699930008,0.9993000699930008,0.9997000299970004,1.0
DISCREPANCY_Z_BAI_MINUS_MSPSS,OA,EEG30,P4,theta,25,-0.0148999822369671,0.943644897621712,9444,0.9444055594440556,1.0,1.0,1.0,0.9993242920620106,0.9993242920620106,0.9993931686551354,0.9993000699930008,0.9993000699930008,0.9997000299970004,1.0
DISCREPANCY_Z_BAI_MINUS_MSPSS,OA,EEG31,P4,alpha,25,-0.0266191842331679,0.8994913619703179,9038,0.9038096190380962,0.999900009999,1.0,1.0,0.9993242920620106,0.9993242920620106,0.9993931686551354,0.9993000699930008,0.9993000699930008,0.9997000299970004,1.0
DISCREPANCY_Z_BAI_MINUS_MSPSS,OA,EEG32,P4,beta,25,-0.0047880768626527,0.9818777908702268,9824,0.9824017598240176,1.0,1.0,1.0,0.9993242920620106,0.9993242920620106,0.9993931686551354,0.9993000699930008,0.9993000699930008,0.9997000299970004,1.0
DISCREPANCY_Z_BAI_MINUS_MSPSS,OA,EEG33,O1,delta,25,-0.0729952998036278,0.7287760327311983,7359,0.7359264073592641,0.9405059494050596,0.9994000599940006,1.0,0.9993242920620106,0.9993242920620106,0.9993931686551354,0.9993000699930008,0.9993000699930008,0.9997000299970004,1.0
DISCREPANCY_Z_BAI_MINUS_MSPSS,OA,EEG34,O1,theta,25,-0.0172587432206495,0.9347408483058234,9338,0.9338066193380662,1.0,1.0,1.0,0.9993242920620106,0.9993242920620106,0.9993931686551354,0.9993000699930008,0.9993000699930008,0.9997000299970004,1.0
DISCREPANCY_Z_BAI_MINUS_MSPSS,OA,EEG35,O1,alpha,25,-0.0166162498702588,0.9371654754954049,9431,0.9431056894310568,1.0,1.0,1.0,0.9993242920620106,0.9993242920620106,0.9993931686551354,0.9993000699930008,0.9993000699930008,0.9997000299970004,1.0
DISCREPANCY_Z_BAI_MINUS_MSPSS,OA,EEG36,O1,beta,25,0.0008362887522214,0.9968345164289776,9977,0.9977002299770024,1.0,1.0,1.0,0.9993242920620106,0.9993242920620106,0.9993931686551354,0.9993000699930008,0.9993000699930008,0.9997000299970004,1.0
DISCREPANCY_Z_BAI_MINUS_MSPSS,OA,EEG37,O2,delta,25,-0.0691831870965517,0.7424577909599469,7476,0.7476252374762524,0.952004799520048,0.9997000299970004,1.0,0.9993242920620106,0.9993242920620106,0.9993931686551354,0.9993000699930008,0.9993000699930008,0.9997000299970004,1.0
DISCREPANCY_Z_BAI_MINUS_MSPSS,OA,EEG38,O2,theta,25,-0.0119777149593534,0.9546851228294072,9525,0.9525047495250476,1.0,1.0,1.0,0.9993242920620106,0.9993242920620106,0.9993931686551354,0.9993000699930008,0.9993000699930008,0.9997000299970004,1.0
DISCREPANCY_Z_BAI_MINUS_MSPSS,OA,EEG39,O2,alpha,25,-0.0322275291885694,0.8784555980957547,8830,0.883011698830117,0.999000099990001,1.0,1.0,0.9993242920620106,0.9993242920620106,0.9993931686551354,0.9993000699930008,0.9993000699930008,0.9997000299970004,1.0
DISCREPANCY_Z_BAI_MINUS_MSPSS,OA,EEG40,O2,beta,25,-0.0040396922238413,0.9847099697566046,9854,0.9854014598540146,1.0,1.0,1.0,0.9993242920620106,0.9993242920620106,0.9993931686551354,0.9993000699930008,0.9993000699930008,0.9997000299970004,1.0
DISCREPANCY_Z_BAI_MINUS_MSPSS,OA,EEG41,F7,delta,25,-0.0872328306491898,0.6784156131636896,6874,0.6874312568743126,0.8964103589641036,0.9963003699630038,1.0,0.9993242920620106,0.9993242920620106,0.9993931686551354,0.9993000699930008,0.9993000699930008,0.9997000299970004,1.0
DISCREPANCY_Z_BAI_MINUS_MSPSS,OA,EEG42,F7,theta,25,-0.0339836234513921,0.8718846045615481,8722,0.8722127787221278,0.9985001499850016,1.0,1.0,0.9993242920620106,0.9993242920620106,0.9993931686551354,0.9993000699930008,0.9993000699930008,0.9997000299970004,1.0
DISCREPANCY_Z_BAI_MINUS_MSPSS,OA,EEG43,F7,alpha,25,-0.0297266549645654,0.8878268262409401,8925,0.8925107489251075,0.9995000499950004,1.0,1.0,0.9993242920620106,0.9993242920620106,0.9993931686551354,0.9993000699930008,0.9993000699930008,0.9997000299970004,1.0
DISCREPANCY_Z_BAI_MINUS_MSPSS,OA,EEG44,F7,beta,25,-0.0170957221832399,0.9353560008529208,9381,0.938106189381062,1.0,1.0,1.0,0.9993242920620106,0.9993242920620106,0.9993931686551354,0.9993000699930008,0.9993000699930008,0.9997000299970004,1.0
DISCREPANCY_Z_BAI_MINUS_MSPSS,OA,EEG45,F8,delta,25,-0.0678412366281108,0.7472924473799378,7499,0.7499250074992501,0.955004499550045,0.9997000299970004,1.0,0.9993242920620106,0.9993242920620106,0.9993931686551354,0.9993000699930008,0.9993000699930008,0.9997000299970004,1.0
DISCREPANCY_Z_BAI_MINUS_MSPSS,OA,EEG46,F8,theta,25,-0.0187971190656575,0.9289376938508784,9279,0.927907209279072,1.0,1.0,1.0,0.9993242920620106,0.9993242920620106,0.9993931686551354,0.9993000699930008,0.9993000699930008,0.9997000299970004,1.0
DISCREPANCY_Z_BAI_MINUS_MSPSS,OA,EEG47,F8,alpha,25,-0.0435564506082541,0.8362204684785646,8386,0.8386161383861613,0.9938006199380062,1.0,1.0,0.9993242920620106,0.9993242920620106,0.9993931686551354,0.9993000699930008,0.9993000699930008,0.9997000299970004,1.0
DISCREPANCY_Z_BAI_MINUS_MSPSS,OA,EEG48,F8,beta,25,-0.002383741647643,0.9909773228342548,9907,0.9907009299070092,1.0,1.0,1.0,0.9993242920620106,0.9993242920620106,0.9993931686551354,0.9993000699930008,0.9993000699930008,0.9997000299970004,1.0
DISCREPANCY_Z_BAI_MINUS_MSPSS,OA,EEG49,T7,delta,25,-0.064294145172117,0.7601158937596746,7626,0.7626237376262374,0.9647035296470352,0.9998000199980002,1.0,0.9993242920620106,0.9993242920620106,0.9993931686551354,0.9993000699930008,0.9993000699930008,0.9997000299970004,1.0
DISCREPANCY_Z_BAI_MINUS_MSPSS,OA,EEG50,T7,theta,25,-0.0085630971125367,0.967595577144822,9649,0.9649035096490352,1.0,1.0,1.0,0.9993242920620106,0.9993242920620106,0.9993931686551354,0.9993000699930008,0.9993000699930008,0.9997000299970004,1.0
DISCREPANCY_Z_BAI_MINUS_MSPSS,OA,EEG51,T7,alpha,25,-0.041886523064819,0.8424213171121391,8477,0.8477152284771523,0.9949005099490053,1.0,1.0,0.9993242920620106,0.9993242920620106,0.9993931686551354,0.9993000699930008,0.9993000699930008,0.9997000299970004,1.0
DISCREPANCY_Z_BAI_MINUS_MSPSS,OA,EEG52,T7,beta,25,-0.0046983665170347,0.9822172791637316,9840,0.984001599840016,1.0,1.0,1.0,0.9993242920620106,0.9993242920620106,0.9993931686551354,0.9993000699930008,0.9993000699930008,0.9997000299970004,1.0
DISCREPANCY_Z_BAI_MINUS_MSPSS,OA,EEG53,T8,delta,25,-0.0523798890520366,0.8036225577556069,8034,0.8034196580341966,0.9837016298370164,1.0,1.0,0.9993242920620106,0.9993242920620106,0.9993931686551354,0.9993000699930008,0.9993000699930008,0.9997000299970004,1.0
DISCREPANCY_Z_BAI_MINUS_MSPSS,OA,EEG54,T8,theta,25,-0.0112228890302953,0.9575382280353744,9552,0.9552044795520448,1.0,1.0,1.0,0.9993242920620106,0.9993242920620106,0.9993931686551354,0.9993000699930008,0.9993000699930008,0.9997000299970004,1.0
DISCREPANCY_Z_BAI_MINUS_MSPSS,OA,EEG55,T8,alpha,25,-0.0189716627343417,0.9282794869236348,9300,0.93000699930007,1.0,1.0,1.0,0.9993242920620106,0.9993242920620106,0.9993931686551354,0.9993000699930008,0.9993000699930008,0.9997000299970004,1.0
DISCREPANCY_Z_BAI_MINUS_MSPSS,OA,EEG56,T8,beta,25,-0.0013377136680807,0.9949365641092937,9951,0.9951004899510048,1.0,1.0,1.0,0.9993242920620106,0.9993242920620106,0.9993931686551354,0.9993000699930008,0.9993000699930008,0.9997000299970004,1.0
DISCREPANCY_Z_BAI_MINUS_MSPSS,OA,EEG57,P7,delta,25,-0.0575696054814466,0.7845935412410919,7856,0.7856214378562144,0.976002399760024,1.0,1.0,0.9993242920620106,0.9993242920620106,0.9993931686551354,0.9993000699930008,0.9993000699930008,0.9997000299970004,1.0
DISCREPANCY_Z_BAI_MINUS_MSPSS,OA,EEG58,P7,theta,25,-0.0018075050041613,0.993158372678596,9920,0.992000799920008,1.0,1.0,1.0,0.9993242920620106,0.9993242920620106,0.9993931686551354,0.9993000699930008,0.9993000699930008,0.9997000299970004,1.0
DISCREPANCY_Z_BAI_MINUS_MSPSS,OA,EEG59,P7,alpha,25,-0.0171409643692987,0.9351852778751036,9380,0.938006199380062,1.0,1.0,1.0,0.9993242920620106,0.9993242920620106,0.9993931686551354,0.9993000699930008,0.9993000699930008,0.9997000299970004,1.0
DISCREPANCY_Z_BAI_MINUS_MSPSS,OA,EEG60,P7,beta,25,0.0067210137410244,0.974563872392875,9771,0.9771022897710228,1.0,1.0,1.0,0.9993242920620106,0.9993242920620106,0.9993931686551354,0.9993000699930008,0.9993000699930008,0.9997000299970004,1.0
DISCREPANCY_Z_BAI_MINUS_MSPSS,OA,EEG61,P8,delta,25,-0.0508941147966541,0.8090909760120375,8082,0.8082191780821918,0.9855014498550144,1.0,1.0,0.9993242920620106,0.9993242920620106,0.9993931686551354,0.9993000699930008,0.9993000699930008,0.9997000299970004,1.0
DISCREPANCY_Z_BAI_MINUS_MSPSS,OA,EEG62,P8,theta,25,-0.0022002263459792,0.9916719202853218,9915,0.9915008499150084,1.0,1.0,1.0,0.9993242920620106,0.9993242920620106,0.9993931686551354,0.9993000699930008,0.9993000699930008,0.9997000299970004,1.0
DISCREPANCY_Z_BAI_MINUS_MSPSS,OA,EEG63,P8,alpha,25,-0.0147687712942727,0.9441404063648376,9461,0.946105389461054,1.0,1.0,1.0,0.9993242920620106,0.9993242920620106,0.9993931686551354,0.9993000699930008,0.9993000699930008,0.9997000299970004,1.0
DISCREPANCY_Z_BAI_MINUS_MSPSS,OA,EEG64,P8,beta,25,-0.0001785147878498,0.9993242920620106,9993,0.9993000699930008,1.0,1.0,1.0,0.9993242920620106,0.9993242920620106,0.9993931686551354,0.9993000699930008,0.9993000699930008,0.9997000299970004,1.0
BAI,DELTA_OA_MINUS_OC,EEG1,Fp1,delta,25,0.2024315434709741,0.3318292351626343,4493,0.4493550644935506,0.6495350464953504,0.841015898410159,0.9684031596840316,0.4640466299458574,0.9993931686551354,0.9993931686551354,0.6131196404169107,0.9997000299970004,0.9997000299970004,1.0
BAI,DELTA_OA_MINUS_OC,EEG2,Fp1,theta,25,0.205760663399936,0.3237681732580001,4376,0.4376562343765623,0.6391360863913609,0.8322167783221678,0.9648035196480352,0.4640466299458574,0.9993931686551354,0.9993931686551354,0.6131196404169107,0.9997000299970004,0.9997000299970004,1.0
BAI,DELTA_OA_MINUS_OC,EEG3,Fp1,alpha,25,0.3190550927530648,0.1200525134644008,901,0.0901909809019098,0.2567743225677432,0.4485551444855514,0.7322267773222678,0.4640466299458574,0.9993931686551354,0.9993931686551354,0.6131196404169107,0.9997000299970004,0.9997000299970004,1.0
BAI,DELTA_OA_MINUS_OC,EEG4,Fp1,beta,25,0.2463028854503135,0.2352834955195308,2979,0.297970202979702,0.5133486651334866,0.7177282271772822,0.9169083091690832,0.4640466299458574,0.9993931686551354,0.9993931686551354,0.6131196404169107,0.9997000299970004,0.9997000299970004,1.0
BAI,DELTA_OA_MINUS_OC,EEG5,Fp2,delta,25,0.2015374888555675,0.3340145090054645,4555,0.4555544445555444,0.6517348265173483,0.8427157284271573,0.9686031396860314,0.4640466299458574,0.9993931686551354,0.9993931686551354,0.6131196404169107,0.9997000299970004,0.9997000299970004,1.0
BAI,DELTA_OA_MINUS_OC,EEG6,Fp2,theta,25,0.201014710339125,0.335296300856838,4468,0.4468553144685531,0.6535346465353464,0.8442155784421558,0.9689031096890312,0.4640466299458574,0.9993931686551354,0.9993931686551354,0.6131196404169107,0.9997000299970004,0.9997000299970004,1.0
BAI,DELTA_OA_MINUS_OC,EEG7,Fp2,alpha,25,0.3264988123753535,0.1111769491636221,1003,0.1003899610038996,0.2316768323167683,0.4184581541845815,0.7039296070392961,0.4640466299458574,0.9993931686551354,0.9993931686551354,0.6131196404169107,0.9997000299970004,0.9997000299970004,1.0
BAI,DELTA_OA_MINUS_OC,EEG8,Fp2,beta,25,0.2584926444706288,0.2121664234769689,2431,0.2431756824317568,0.4706529347065293,0.6795320467953204,0.8975102489751025,0.4640466299458574,0.9993931686551354,0.9993931686551354,0.6131196404169107,0.9997000299970004,0.9997000299970004,1.0
BAI,DELTA_OA_MINUS_OC,EEG9,F3,delta,25,0.1698681588607648,0.4169163279175791,5563,0.5563443655634437,0.7456254374562544,0.91000899910009,0.9885011498850116,0.4640466299458574,0.9993931686551354,0.9993931686551354,0.6131196404169107,0.9997000299970004,0.9997000299970004,1.0
BAI,DELTA_OA_MINUS_OC,EEG10,F3,theta,25,0.1899347084245081,0.3631545487732462,4925,0.4925507449255074,0.6895310468953104,0.8702129787021298,0.9774022597740226,0.4640466299458574,0.9993931686551354,0.9993931686551354,0.6131196404169107,0.9997000299970004,0.9997000299970004,1.0
BAI,DELTA_OA_MINUS_OC,EEG11,F3,alpha,25,0.2620711071340437,0.2056817243953757,2307,0.2307769223077692,0.4563543645635436,0.6661333866613338,0.8917108289171083,0.4640466299458574,0.9993931686551354,0.9993931686551354,0.6131196404169107,0.9997000299970004,0.9997000299970004,1.0
BAI,DELTA_OA_MINUS_OC,EEG12,F3,beta,25,0.2161475462151019,0.2993912088427606,4075,0.4075592440755924,0.6094390560943905,0.805919408059194,0.9547045295470452,0.4640466299458574,0.9993931686551354,0.9993931686551354,0.6131196404169107,0.9997000299970004,0.9997000299970004,1.0
BAI,DELTA_OA_MINUS_OC,EEG13,F4,delta,25,0.1659879500252172,0.4277929869813373,5694,0.5694430556944305,0.7563243675632437,0.9174082591740826,0.9898010198980102,0.4640466299458574,0.9993931686551354,0.9993931686551354,0.6131196404169107,0.9997000299970004,0.9997000299970004,1.0
BAI,DELTA_OA_MINUS_OC,EEG14,F4,theta,25,0.1916897705798087,0.358654167828748,4836,0.4836516348365163,0.6839316068393161,0.8662133786621338,0.9756024397560245,0.4640466299458574,0.9993931686551354,0.9993931686551354,0.6131196404169107,0.9997000299970004,0.9997000299970004,1.0
BAI,DELTA_OA_MINUS_OC,EEG15,F4,alpha,25,0.1974679303053314,0.3440704409509114,4478,0.4478552144785521,0.665033496650335,0.8535146485351465,0.9714028597140286,0.4640466299458574,0.9993931686551354,0.9993931686551354,0.6131196404169107,0.9997000299970004,0.9997000299970004,1.0
BAI,DELTA_OA_MINUS_OC,EEG16,F4,beta,25,0.1963326462840017,0.3469075590496022,4742,0.4742525747425257,0.6685331466853315,0.8560143985601439,0.9726027397260274,0.4640466299458574,0.9993931686551354,0.9993931686551354,0.6131196404169107,0.9997000299970004,0.9997000299970004,1.0
BAI,DELTA_OA_MINUS_OC,EEG17,C3,delta,25,0.1609140006550674,0.4422454140338264,5837,0.5837416258374163,0.7709229077092291,0.9257074292570744,0.9911008899110088,0.468020879183289,0.9993931686551354,0.9993931686551354,0.6131196404169107,0.9997000299970004,0.9997000299970004,1.0
BAI,DELTA_OA_MINUS_OC,EEG18,C3,theta,25,0.1880833399257373,0.3679374306161955,4963,0.4963503649635036,0.6946305369463054,0.8738126187381262,0.9784021597840216,0.4640466299458574,0.9993931686551354,0.9993931686551354,0.6131196404169107,0.9997000299970004,0.9997000299970004,1.0
BAI,DELTA_OA_MINUS_OC,EEG19,C3,alpha,25,0.207887810646134,0.3186804501181735,4123,0.4123587641235876,0.6331366863313669,0.8256174382561744,0.962903709629037,0.4640466299458574,0.9993931686551354,0.9993931686551354,0.6131196404169107,0.9997000299970004,0.9997000299970004,1.0
BAI,DELTA_OA_MINUS_OC,EEG20,C3,beta,25,0.2045612771305553,0.3266585097117844,4478,0.4478552144785521,0.6432356764323568,0.8354164583541646,0.9663033696630337,0.4640466299458574,0.9993931686551354,0.9993931686551354,0.6131196404169107,0.9997000299970004,0.9997000299970004,1.0
BAI,DELTA_OA_MINUS_OC,EEG21,C4,delta,25,0.1661815064438377,0.4272468031890626,5715,0.5715428457154285,0.7556244375562444,0.9169083091690832,0.9897010298970104,0.4640466299458574,0.9993931686551354,0.9993931686551354,0.6131196404169107,0.9997000299970004,0.9997000299970004,1.0
BAI,DELTA_OA_MINUS_OC,EEG22,C4,theta,25,0.1835061208494219,0.3799183428655914,5144,0.5144485551444855,0.7076292370762923,0.8833116688331167,0.9816018398160185,0.4640466299458574,0.9993931686551354,0.9993931686551354,0.6131196404169107,0.9997000299970004,0.9997000299970004,1.0
BAI,DELTA_OA_MINUS_OC,EEG23,C4,alpha,25,0.2148957697337863,0.3022667529719604,3874,0.3874612538746125,0.6120387961203879,0.8087191280871913,0.9556044395560443,0.4640466299458574,0.9993931686551354,0.9993931686551354,0.6131196404169107,0.9997000299970004,0.9997000299970004,1.0
BAI,DELTA_OA_MINUS_OC,EEG24,C4,beta,25,0.1957171748890726,0.3484514346205509,4772,0.4772522747725227,0.6706329367063294,0.8575142485751425,0.9728027197280272,0.4640466299458574,0.9993931686551354,0.9993931686551354,0.6131196404169107,0.9997000299970004,0.9997000299970004,1.0
BAI,DELTA_OA_MINUS_OC,EEG25,P3,delta,25,0.1773553273604503,0.3963652970953908,5353,0.5353464653534646,0.7239276072392761,0.8964103589641036,0.9853014698530148,0.4640466299458574,0.9993931686551354,0.9993931686551354,0.6131196404169107,0.9997000299970004,0.9997000299970004,1.0
BAI,DELTA_OA_MINUS_OC,EEG26,P3,theta,25,0.1704851858214845,0.4152008772224866,5514,0.5514448555144486,0.7438256174382561,0.9088091190880913,0.9882011798820118,0.4640466299458574,0.9993931686551354,0.9993931686551354,0.6131196404169107,0.9997000299970004,0.9997000299970004,1.0
BAI,DELTA_OA_MINUS_OC,EEG27,P3,alpha,25,0.2132787214760134,0.3060066721254286,3904,0.3904609539046095,0.6156384361563844,0.8124187581241876,0.9576042395760423,0.4640466299458574,0.9993931686551354,0.9993931686551354,0.6131196404169107,0.9997000299970004,0.9997000299970004,1.0
BAI,DELTA_OA_MINUS_OC,EEG28,P3,beta,25,0.2043291601160397,0.3272196763400002,4495,0.4495550444955504,0.6439356064393561,0.836016398360164,0.9666033396660334,0.4640466299458574,0.9993931686551354,0.9993931686551354,0.6131196404169107,0.9997000299970004,0.9997000299970004,1.0
BAI,DELTA_OA_MINUS_OC,EEG29,P4,delta,25,0.1678963632703685,0.4224243534600087,5641,0.5641435856414359,0.7511248875112488,0.9134086591340866,0.989001099890011,0.4640466299458574,0.9993931686551354,0.9993931686551354,0.6131196404169107,0.9997000299970004,0.9997000299970004,1.0
BAI,DELTA_OA_MINUS_OC,EEG30,P4,theta,25,0.1734488286353994,0.4070158322593902,5437,0.5437456254374563,0.7352264773522648,0.9032096790320968,0.9872012798720128,0.4640466299458574,0.9993931686551354,0.9993931686551354,0.6131196404169107,0.9997000299970004,0.9997000299970004,1.0
BAI,DELTA_OA_MINUS_OC,EEG31,P4,alpha,25,0.2363203708931302,0.2554089868195132,3029,0.302969703029697,0.5486451354864513,0.7521247875212479,0.9318068193180682,0.4640466299458574,0.9993931686551354,0.9993931686551354,0.6131196404169107,0.9997000299970004,0.9997000299970004,1.0
BAI,DELTA_OA_MINUS_OC,EEG32,P4,beta,25,0.2005955714473179,0.3363261121008242,4609,0.460953904609539,0.6546345365463454,0.8451154884511549,0.9692030796920308,0.4640466299458574,0.9993931686551354,0.9993931686551354,0.6131196404169107,0.9997000299970004,0.9997000299970004,1.0
BAI,DELTA_OA_MINUS_OC,EEG33,O1,delta,25,0.1542104717359443,0.4617322878712024,6035,0.6035396460353964,0.7901209879012099,0.9385061493850616,0.9933006699330068,0.47342885692282,0.9993931686551354,0.9993931686551354,0.6131196404169107,0.9997000299970004,0.9997000299970004,1.0
BAI,DELTA_OA_MINUS_OC,EEG34,O1,theta,25,0.1741073807873828,0.4052093097980412,5401,0.5401459854014599,0.7328267173282672,0.9021097890210978,0.9869013098690133,0.4640466299458574,0.9993931686551354,0.9993931686551354,0.6131196404169107,0.9997000299970004,0.9997000299970004,1.0
BAI,DELTA_OA_MINUS_OC,EEG35,O1,alpha,25,0.2084763718597543,0.3172814025278306,4056,0.4056594340565943,0.6312368763123688,0.8244175582441756,0.9626037396260374,0.4640466299458574,0.9993931686551354,0.9993931686551354,0.6131196404169107,0.9997000299970004,0.9997000299970004,1.0
BAI,DELTA_OA_MINUS_OC,EEG36,O1,beta,25,0.1936491231496734,0.3536687952343917,4794,0.4794520547945205,0.677032296770323,0.8621137886211379,0.9745025497450256,0.4640466299458574,0.9993931686551354,0.9993931686551354,0.6131196404169107,0.9997000299970004,0.9997000299970004,1.0
BAI,DELTA_OA_MINUS_OC,EEG37,O2,delta,25,0.1776797067785294,0.3954880428067718,5355,0.5355464453554645,0.7233276672332767,0.8957104289571043,0.985001499850015,0.4640466299458574,0.9993931686551354,0.9993931686551354,0.6131196404169107,0.9997000299970004,0.9997000299970004,1.0
BAI,DELTA_OA_MINUS_OC,EEG38,O2,theta,25,0.1800929869018987,0.3889959984695174,5235,0.5235476452354765,0.7174282571742826,0.8904109589041096,0.984001599840016,0.4640466299458574,0.9993931686551354,0.9993931686551354,0.6131196404169107,0.9997000299970004,0.9997000299970004,1.0
BAI,DELTA_OA_MINUS_OC,EEG39,O2,alpha,25,0.2252444572327441,0.2790076788696497,3522,0.3522647735226477,0.5840415958404159,0.7847215278472153,0.9457054294570544,0.4640466299458574,0.9993931686551354,0.9993931686551354,0.6131196404169107,0.9997000299970004,0.9997000299970004,1.0
BAI,DELTA_OA_MINUS_OC,EEG40,O2,beta,25,0.1978704428032601,0.3430678751680548,4702,0.4702529747025297,0.664033596640336,0.8526147385261473,0.9709029097090291,0.4640466299458574,0.9993931686551354,0.9993931686551354,0.6131196404169107,0.9997000299970004,0.9997000299970004,1.0
BAI,DELTA_OA_MINUS_OC,EEG41,F7,delta,25,0.145269725674888,0.4884027505461741,6252,0.6252374762523748,0.8142185781421858,0.9508049195080492,0.9954004599540046,0.4884027505461741,0.9993931686551354,0.9993931686551354,0.6252374762523748,0.9997000299970004,0.9997000299970004,1.0
BAI,DELTA_OA_MINUS_OC,EEG42,F7,theta,25,0.1527516154322349,0.466031531033401,5978,0.5978402159784022,0.7935206479352065,0.9404059594040596,0.9935006499350064,0.47342885692282,0.9993931686551354,0.9993931686551354,0.6131196404169107,0.9997000299970004,0.9997000299970004,1.0
BAI,DELTA_OA_MINUS_OC,EEG43,F7,alpha,25,0.2117805932116354,0.3094969727169486,3802,0.3802619738026197,0.6204379562043796,0.8166183381661833,0.9594040595940406,0.4640466299458574,0.9993931686551354,0.9993931686551354,0.6131196404169107,0.9997000299970004,0.9997000299970004,1.0
BAI,DELTA_OA_MINUS_OC,EEG44,F7,beta,25,0.1706385337747142,0.414775145758143,5508,0.5508449155084492,0.7433256674332567,0.9083091690830916,0.9882011798820118,0.4640466299458574,0.9993931686551354,0.9993931686551354,0.6131196404169107,0.9997000299970004,0.9997000299970004,1.0
BAI,DELTA_OA_MINUS_OC,EEG45,F8,delta,25,0.1595819032708659,0.4460824004715724,5853,0.5853414658534146,0.775022497750225,0.9286071392860714,0.9913008699130088,0.468020879183289,0.9993931686551354,0.9993931686551354,0.6131196404169107,0.9997000299970004,0.9997000299970004,1.0
BAI,DELTA_OA_MINUS_OC,EEG46,F8,theta,25,0.1733915999318505,0.4071730318491119,5433,0.5433456654334566,0.7356264373562644,0.9034096590340964,0.9872012798720128,0.4640466299458574,0.9993931686551354,0.9993931686551354,0.6131196404169107,0.9997000299970004,0.9997000299970004,1.0
BAI,DELTA_OA_MINUS_OC,EEG47,F8,alpha,25,0.1919835678378692,0.3579040156319285,4621,0.4621537846215378,0.6828317168283171,0.8656134386561344,0.9754024597540246,0.4640466299458574,0.9993931686551354,0.9993931686551354,0.6131196404169107,0.9997000299970004,0.9997000299970004,1.0
BAI,DELTA_OA_MINUS_OC,EEG48,F8,beta,25,0.1958974348639045,0.3479988413453371,4775,0.4775522447755224,0.6701329867013298,0.8571142885711429,0.9728027197280272,0.4640466299458574,0.9993931686551354,0.9993931686551354,0.6131196404169107,0.9997000299970004,0.9997000299970004,1.0
BAI,DELTA_OA_MINUS_OC,EEG49,T7,delta,25,0.1753584768661177,0.4017896830078066,5422,0.5422457754224578,0.7292270772922708,0.8999100089991001,0.9863013698630136,0.4640466299458574,0.9993931686551354,0.9993931686551354,0.6131196404169107,0.9997000299970004,0.9997000299970004,1.0
BAI,DELTA_OA_MINUS_OC,EEG50,T7,theta,25,0.2025123888365616,0.3316320566256732,4482,0.4482551744825517,0.6495350464953504,0.8409159084091591,0.9684031596840316,0.4640466299458574,0.9993931686551354,0.9993931686551354,0.6131196404169107,0.9997000299970004,0.9997000299970004,1.0
BAI,DELTA_OA_MINUS_OC,EEG51,T7,alpha,25,0.188523905757114,0.3667959554641078,4680,0.4680531946805319,0.6930306969303069,0.8731126887311269,0.9782021797820218,0.4640466299458574,0.9993931686551354,0.9993931686551354,0.6131196404169107,0.9997000299970004,0.9997000299970004,1.0
BAI,DELTA_OA_MINUS_OC,EEG52,T7,beta,25,0.2024242329257005,0.3318470687677088,4518,0.4518548145185481,0.6495350464953504,0.841015898410159,0.9684031596840316,0.4640466299458574,0.9993931686551354,0.9993931686551354,0.6131196404169107,0.9997000299970004,0.9997000299970004,1.0
BAI,DELTA_OA_MINUS_OC,EEG53,T8,delta,25,0.1873059308645028,0.3699566691118292,4985,0.4985501449855014,0.6964303569643036,0.8753124687531247,0.9788021197880212,0.4640466299458574,0.9993931686551354,0.9993931686551354,0.6131196404169107,0.9997000299970004,0.9997000299970004,1.0
BAI,DELTA_OA_MINUS_OC,EEG54,T8,theta,25,0.1730409576907125,0.4081369364600116,5419,0.541945805419458,0.7364263573642635,0.9042095790420958,0.9875012498750124,0.4640466299458574,0.9993931686551354,0.9993931686551354,0.6131196404169107,0.9997000299970004,0.9997000299970004,1.0
BAI,DELTA_OA_MINUS_OC,EEG55,T8,alpha,25,0.2620297218434146,0.2057559436432214,2290,0.2290770922907709,0.4566543345665433,0.6661333866613338,0.8918108189181082,0.4640466299458574,0.9993931686551354,0.9993931686551354,0.6131196404169107,0.9997000299970004,0.9997000299970004,1.0
BAI,DELTA_OA_MINUS_OC,EEG56,T8,beta,25,0.1904050383003399,0.3619452943859077,4936,0.4936506349365063,0.6882311768823117,0.8691130886911309,0.9768023197680232,0.4640466299458574,0.9993931686551354,0.9993931686551354,0.6131196404169107,0.9997000299970004,0.9997000299970004,1.0
BAI,DELTA_OA_MINUS_OC,EEG57,P7,delta,25,0.1775917957259707,0.3957256819540914,5352,0.5352464753524647,0.7235276472352765,0.8958104189581042,0.9851014898510148,0.4640466299458574,0.9993931686551354,0.9993931686551354,0.6131196404169107,0.9997000299970004,0.9997000299970004,1.0
BAI,DELTA_OA_MINUS_OC,EEG58,P7,theta,25,0.1850719612286081,0.3757948132472714,5054,0.5054494550544946,0.7028297170282972,0.8796120387961204,0.9804019598040196,0.4640466299458574,0.9993931686551354,0.9993931686551354,0.6131196404169107,0.9997000299970004,0.9997000299970004,1.0
BAI,DELTA_OA_MINUS_OC,EEG59,P7,alpha,25,0.2287738368996353,0.2713426103688837,3452,0.3452654734526547,0.5729427057294271,0.7749225077492251,0.94000599940006,0.4640466299458574,0.9993931686551354,0.9993931686551354,0.6131196404169107,0.9997000299970004,0.9997000299970004,1.0
BAI,DELTA_OA_MINUS_OC,EEG60,P7,beta,25,0.1813370479730384,0.3856730989556854,5240,0.524047595240476,0.7141285871412859,0.8879112088791121,0.9827017298270172,0.4640466299458574,0.9993931686551354,0.9993931686551354,0.6131196404169107,0.9997000299970004,0.9997000299970004,1.0
BAI,DELTA_OA_MINUS_OC,EEG61,P8,delta,25,0.1767213484619958,0.3980829952386067,5340,0.534046595340466,0.7259274072592741,0.8974102589741025,0.9854014598540146,0.4640466299458574,0.9993931686551354,0.9993931686551354,0.6131196404169107,0.9997000299970004,0.9997000299970004,1.0
BAI,DELTA_OA_MINUS_OC,EEG62,P8,theta,25,0.191590169061252,0.3589086894666337,4834,0.4834516548345166,0.6842315768423157,0.8664133586641336,0.9757024297570244,0.4640466299458574,0.9993931686551354,0.9993931686551354,0.6131196404169107,0.9997000299970004,0.9997000299970004,1.0
BAI,DELTA_OA_MINUS_OC,EEG63,P8,alpha,25,0.2496430143061312,0.2287903541467019,2665,0.2665733426657334,0.5018498150184981,0.7079292070792921,0.9117088291170884,0.4640466299458574,0.9993931686551354,0.9993931686551354,0.6131196404169107,0.9997000299970004,0.9997000299970004,1.0
BAI,DELTA_OA_MINUS_OC,EEG64,P8,beta,25,0.184791360062289,0.3765318536073707,5124,0.5124487551244875,0.7033296670332967,0.8803119688031197,0.9804019598040196,0.4640466299458574,0.9993931686551354,0.9993931686551354,0.6131196404169107,0.9997000299970004,0.9997000299970004,1.0
MSPSS,DELTA_OA_MINUS_OC,EEG1,Fp1,delta,25,0.033549749576716,0.8735073334499084,8581,0.8581141885811419,0.9998000199980002,1.0,1.0,0.9974837995001076,0.992516486086388,0.9993931686551354,0.998000199980002,0.9818925084235762,0.9997000299970004,1.0
MSPSS,DELTA_OA_MINUS_OC,EEG2,Fp1,theta,25,0.0101647649769908,0.9615385921334978,9589,0.958904109589041,1.0,1.0,1.0,0.9974837995001076,0.992516486086388,0.9993931686551354,0.998000199980002,0.9896105126329472,0.9997000299970004,1.0
MSPSS,DELTA_OA_MINUS_OC,EEG3,Fp1,alpha,25,-0.03556663009913,0.8659683237547595,8607,0.8607139286071392,0.9998000199980002,1.0,1.0,0.9974837995001076,0.992516486086388,0.9993931686551354,0.998000199980002,0.9818925084235762,0.9997000299970004,1.0
MSPSS,DELTA_OA_MINUS_OC,EEG4,Fp1,beta,25,0.0216522360402188,0.9181770050499382,9126,0.9126087391260874,1.0,1.0,1.0,0.9974837995001076,0.992516486086388,0.9993931686551354,0.998000199980002,0.9846026633291726,0.9997000299970004,1.0
MSPSS,DELTA_OA_MINUS_OC,EEG5,Fp2,delta,25,0.0318290591947315,0.8799477060265186,8656,0.8656134386561344,0.999900009999,1.0,1.0,0.9974837995001076,0.992516486086388,0.9993931686551354,0.998000199980002,0.9818925084235762,0.9997000299970004,1.0
MSPSS,DELTA_OA_MINUS_OC,EEG6,Fp2,theta,25,0.0169627669555861,0.9358577280992534,9286,0.9286071392860714,1.0,1.0,1.0,0.9974837995001076,0.992516486086388,0.9993931686551354,0.998000199980002,0.9852539607917662,0.9997000299970004,1.0
MSPSS,DELTA_OA_MINUS_OC,EEG7,Fp2,alpha,25,-0.0084004371062035,0.968210807251116,9688,0.9688031196880312,1.0,1.0,1.0,0.9974837995001076,0.992516486086388,0.9993931686551354,0.998000199980002,0.9896105126329472,0.9997000299970004,1.0
MSPSS,DELTA_OA_MINUS_OC,EEG8,Fp2,beta,25,0.032111860307203,0.8788886897031145,8617,0.8617138286171383,0.999900009999,1.0,1.0,0.9974837995001076,0.992516486086388,0.9993931686551354,0.998000199980002,0.9818925084235762,0.9997000299970004,1.0
MSPSS,DELTA_OA_MINUS_OC,EEG9,F3,delta,25,0.0490931153861895,0.8157312451084057,7896,0.7896210378962104,0.9974002599740026,1.0,1.0,0.9974837995001076,0.992516486086388,0.9993931686551354,0.998000199980002,0.9818925084235762,0.9997000299970004,1.0
MSPSS,DELTA_OA_MINUS_OC,EEG10,F3,theta,25,0.0284863349537959,0.8924800416023959,8796,0.8796120387961204,1.0,1.0,1.0,0.9974837995001076,0.992516486086388,0.9993931686551354,0.998000199980002,0.9818925084235762,0.9997000299970004,1.0
MSPSS,DELTA_OA_MINUS_OC,EEG11,F3,alpha,25,-0.0708360780509477,0.7365159287867364,7144,0.7144285571442855,0.9696030396960305,0.999000099990001,1.0,0.9974837995001076,0.992516486086388,0.9993931686551354,0.998000199980002,0.9818925084235762,0.9997000299970004,1.0
MSPSS,DELTA_OA_MINUS_OC,EEG12,F3,beta,25,0.0303100602362208,0.8856393460269871,8752,0.8752124787521248,1.0,1.0,1.0,0.9974837995001076,0.992516486086388,0.9993931686551354,0.998000199980002,0.9818925084235762,0.9997000299970004,1.0
MSPSS,DELTA_OA_MINUS_OC,EEG13,F4,delta,25,0.0609057296502625,0.7724234691524035,7374,0.7374262573742626,0.9868013198680132,0.999900009999,1.0,0.9974837995001076,0.992516486086388,0.9993931686551354,0.998000199980002,0.9818925084235762,0.9997000299970004,1.0
MSPSS,DELTA_OA_MINUS_OC,EEG14,F4,theta,25,-0.0006647541308783,0.9974837995001076,9980,0.998000199980002,1.0,1.0,1.0,0.9974837995001076,0.9974837995001076,0.9993931686551354,0.998000199980002,0.998000199980002,0.9997000299970004,1.0
MSPSS,DELTA_OA_MINUS_OC,EEG15,F4,alpha,25,0.0016881137339517,0.9936102738927048,9938,0.9938006199380062,1.0,1.0,1.0,0.9974837995001076,0.9974837995001076,0.9993931686551354,0.998000199980002,0.998000199980002,0.9997000299970004,1.0
MSPSS,DELTA_OA_MINUS_OC,EEG16,F4,beta,25,0.044419916354603,0.8330179063262404,8118,0.8118188181181882,0.9986001399860014,1.0,1.0,0.9974837995001076,0.992516486086388,0.9993931686551354,0.998000199980002,0.9818925084235762,0.9997000299970004,1.0
MSPSS,DELTA_OA_MINUS_OC,EEG17,C3,delta,25,0.0353896796448512,0.8666293110935703,8523,0.8523147685231477,0.9998000199980002,1.0,1.0,0.9974837995001076,0.992516486086388,0.9993931686551354,0.998000199980002,0.9818925084235762,0.9997000299970004,1.0
MSPSS,DELTA_OA_MINUS_OC,EEG18,C3,theta,25,0.0047088061273327,0.9821777726896548,9793,0.9793020697930208,1.0,1.0,1.0,0.9974837995001076,0.992516486086388,0.9993931686551354,0.998000199980002,0.9896105126329472,0.9997000299970004,1.0
MSPSS,DELTA_OA_MINUS_OC,EEG19,C3,alpha,25,-0.0279691232814895,0.8944214555137858,8783,0.8783121687831217,1.0,1.0,1.0,0.9974837995001076,0.992516486086388,0.9993931686551354,0.998000199980002,0.9818925084235762,0.9997000299970004,1.0
MSPSS,DELTA_OA_MINUS_OC,EEG20,C3,beta,25,0.0325588154168808,0.8772153724270148,8613,0.8613138686131386,0.9998000199980002,1.0,1.0,0.9974837995001076,0.992516486086388,0.9993931686551354,0.998000199980002,0.9818925084235762,0.9997000299970004,1.0
MSPSS,DELTA_OA_MINUS_OC,EEG21,C4,delta,25,0.0407288971525595,0.8467252447734094,8291,0.8291170882911709,0.9995000499950004,1.0,1.0,0.9974837995001076,0.992516486086388,0.9993931686551354,0.998000199980002,0.9818925084235762,0.9997000299970004,1.0
MSPSS,DELTA_OA_MINUS_OC,EEG22,C4,theta,25,0.005230415544614,0.9802039071302608,9760,0.976002399760024,1.0,1.0,1.0,0.9974837995001076,0.992516486086388,0.9993931686551354,0.998000199980002,0.9896105126329472,0.9997000299970004,1.0
MSPSS,DELTA_OA_MINUS_OC,EEG23,C4,alpha,25,-0.0672501542113129,0.7494249036043368,7218,0.7218278172182782,0.9778022197780222,0.9994000599940006,1.0,0.9974837995001076,0.992516486086388,0.9993931686551354,0.998000199980002,0.9818925084235762,0.9997000299970004,1.0
MSPSS,DELTA_OA_MINUS_OC,EEG24,C4,beta,25,0.0447292591839914,0.831871191420854,8122,0.8122187781221878,0.9986001399860014,1.0,1.0,0.9974837995001076,0.992516486086388,0.9993931686551354,0.998000199980002,0.9818925084235762,0.9997000299970004,1.0
MSPSS,DELTA_OA_MINUS_OC,EEG25,P3,delta,25,0.0345790374576851,0.8696585204473875,8542,0.8542145785421458,0.9998000199980002,1.0,1.0,0.9974837995001076,0.992516486086388,0.9993931686551354,0.998000199980002,0.9818925084235762,0.9997000299970004,1.0
MSPSS,DELTA_OA_MINUS_OC,EEG26,P3,theta,25,0.0130634333369249,0.950582262850874,9453,0.9453054694530548,1.0,1.0,1.0,0.9974837995001076,0.992516486086388,0.9993931686551354,0.998000199980002,0.9896105126329472,0.9997000299970004,1.0
